%OpenBCI Raw EEG Data
%
%Sample Rate = 200.0 Hz
%First Column = SampleIndex
%Last Column = Timestamp 
%Other Columns = EEG data in microvolts followed by Accel Data (in G) interleaved with Aux Data
0, -3.29, -70.94, 0.00, 7.96, 0.000, 0.000, 0.000, 14:27:13.085
1, -3.15, -69.48, 0.00, 9.82, 0.000, 0.000, 0.000, 14:27:13.085
2, -11.69, -73.48, 0.00, 9.13, 0.000, 0.000, 0.000, 14:27:13.086
3, -12.93, -74.05, 0.00, 8.76, 0.000, 0.000, 0.000, 14:27:13.100
4, -0.35, -72.79, 0.00, 8.71, 0.000, 0.000, 0.000, 14:27:13.100
5, 7.74, -70.62, 0.00, 5.03, 0.000, 0.000, 0.000, 14:27:13.101
6, -12.30, -72.44, 0.00, 11.23, 0.000, 0.000, 0.000, 14:27:13.101
7, -17.82, -71.20, 0.00, 14.10, 0.000, 0.000, 0.000, 14:27:13.115
8, 6.80, -66.18, 0.00, 15.39, 0.000, 0.000, 0.000, 14:27:13.116
9, 2.12, -65.64, 0.00, 8.01, 0.000, 0.000, 0.000, 14:27:13.130
10, -9.13, -72.72, 0.00, 11.25, 0.000, 0.000, 0.000, 14:27:13.130
11, -7.70, -73.55, 0.00, 6.60, 0.000, 0.000, 0.000, 14:27:13.131
12, -1.34, -69.86, 0.00, 9.51, 0.000, 0.000, 0.000, 14:27:13.131
13, -3.30, -65.96, 0.00, 11.88, 0.000, 0.000, 0.000, 14:27:13.145
14, -11.84, -71.12, 0.00, 6.90, 0.000, 0.000, 0.000, 14:27:13.145
15, -9.93, -74.30, 0.00, 5.72, 0.000, 0.000, 0.000, 14:27:13.161
16, 0.24, -67.37, 0.00, 8.99, 0.000, 0.000, 0.000, 14:27:13.161
17, 5.13, -68.11, 0.00, 10.40, 0.000, 0.000, 0.000, 14:27:13.161
18, -14.87, -75.13, 0.00, 11.47, 0.000, 0.000, 0.000, 14:27:13.161
19, -11.69, -75.41, 0.00, 8.99, 0.000, 0.000, 0.000, 14:27:13.176
20, 4.86, -74.00, 0.00, 11.89, 0.000, 0.000, 0.000, 14:27:13.176
21, -1.74, -71.14, 0.00, 7.35, 0.000, 0.000, 0.000, 14:27:13.190
22, -11.53, -70.29, 0.00, 9.48, 0.000, 0.000, 0.000, 14:27:13.190
23, -9.09, -73.65, 0.00, 7.91, 0.000, 0.000, 0.000, 14:27:13.191
24, 1.12, -67.55, 0.00, 8.95, 0.000, 0.000, 0.000, 14:27:13.191
25, -1.66, -68.64, 0.00, 8.35, 0.000, 0.000, 0.000, 14:27:13.205
26, -11.55, -72.26, 0.00, 6.41, 0.000, 0.000, 0.000, 14:27:13.205
27, -12.97, -74.92, 0.00, 12.52, 0.000, 0.000, 0.000, 14:27:13.220
28, -1.97, -70.77, 0.00, 8.47, 0.000, 0.000, 0.000, 14:27:13.220
29, 4.64, -68.98, 0.00, 8.44, 0.000, 0.000, 0.000, 14:27:13.221
30, -12.35, -73.00, 0.00, 9.28, 0.000, 0.000, 0.000, 14:27:13.221
31, -14.74, -76.29, 0.00, 7.75, 0.000, 0.000, 0.000, 14:27:13.235
32, 9.38, -70.45, 0.00, 7.17, 0.000, 0.000, 0.000, 14:27:13.235
33, -3.09, -72.97, 0.00, 8.41, 0.000, 0.000, 0.000, 14:27:13.250
34, -12.94, -76.05, 0.00, 12.03, 0.000, 0.000, 0.000, 14:27:13.250
35, -16.64, -79.01, 0.00, 9.26, 0.000, 0.000, 0.000, 14:27:13.250
36, -4.32, -79.19, 0.00, 6.83, 0.000, 0.000, 0.000, 14:27:13.250
37, 1.45, -74.65, 0.00, 8.39, 0.000, 0.000, 0.000, 14:27:13.265
38, -8.80, -74.87, 0.00, 12.01, 0.000, 0.000, 0.000, 14:27:13.266
39, -21.42, -74.04, 0.00, 8.26, 0.000, 0.000, 0.000, 14:27:13.280
40, -3.51, -73.20, 0.00, 8.78, 0.000, 0.000, 0.000, 14:27:13.280
41, 14.57, -69.00, 0.00, 6.91, 0.000, 0.000, 0.000, 14:27:13.280
42, -13.82, -74.57, 0.00, 8.79, 0.000, 0.000, 0.000, 14:27:13.280
43, -11.45, -80.12, 0.00, 11.05, 0.000, 0.000, 0.000, 14:27:13.295
44, 10.90, -73.24, 0.00, 10.48, 0.000, 0.000, 0.000, 14:27:13.295
45, 0.40, -70.44, 0.00, 10.08, 0.000, 0.000, 0.000, 14:27:13.310
46, -14.71, -74.68, 0.00, 4.83, 0.000, 0.000, 0.000, 14:27:13.310
47, -11.86, -72.65, 0.00, 4.20, 0.000, 0.000, 0.000, 14:27:13.311
48, -3.27, -73.89, 0.00, 5.65, 0.000, 0.000, 0.000, 14:27:13.311
49, -3.94, -66.36, 0.00, 10.38, 0.000, 0.000, 0.000, 14:27:13.326
50, -11.02, -69.32, 0.00, 10.38, 0.000, 0.000, 0.000, 14:27:13.326
51, -11.12, -68.82, 0.00, 11.07, 0.000, 0.000, 0.000, 14:27:13.340
52, 1.01, -67.55, 0.00, 5.90, 0.000, 0.000, 0.000, 14:27:13.341
53, 3.45, -65.69, 0.00, 7.44, 0.000, 0.000, 0.000, 14:27:13.341
54, -12.51, -66.52, 0.00, 9.33, 0.000, 0.000, 0.000, 14:27:13.342
55, -3.62, -71.14, 0.00, 8.66, 0.000, 0.000, 0.000, 14:27:13.355
56, 11.10, -69.31, 0.00, 9.01, 0.000, 0.000, 0.000, 14:27:13.355
57, -1.98, -64.39, 0.00, 11.01, 0.000, 0.000, 0.000, 14:27:13.370
58, -15.51, -71.41, 0.00, 7.64, 0.000, 0.000, 0.000, 14:27:13.370
59, -5.72, -71.96, 0.00, 7.29, 0.000, 0.000, 0.000, 14:27:13.370
60, -1.43, -72.53, 0.00, 10.16, 0.000, 0.000, 0.000, 14:27:13.370
61, -1.09, -65.68, 0.00, 9.86, 0.000, 0.000, 0.000, 14:27:13.386
62, -8.64, -69.64, 0.00, 10.85, 0.000, 0.000, 0.000, 14:27:13.386
63, -13.48, -70.01, 0.00, 5.10, 0.000, 0.000, 0.000, 14:27:13.400
64, 0.70, -69.86, 0.00, 7.31, 0.000, 0.000, 0.000, 14:27:13.400
65, 3.40, -69.99, 0.00, 11.53, 0.000, 0.000, 0.000, 14:27:13.401
66, -16.27, -72.01, 0.00, 5.70, 0.000, 0.000, 0.000, 14:27:13.401
67, -7.63, -71.46, 0.00, 7.65, 0.000, 0.000, 0.000, 14:27:13.415
68, 0.83, -63.93, 0.00, 9.96, 0.000, 0.000, 0.000, 14:27:13.415
69, -0.74, -62.39, 0.00, 7.92, 0.000, 0.000, 0.000, 14:27:13.431
70, -12.77, -63.09, 0.00, 7.23, 0.000, 0.000, 0.000, 14:27:13.431
71, -9.86, -64.65, 0.00, 7.06, 0.000, 0.000, 0.000, 14:27:13.431
72, -0.46, -64.40, 0.00, 10.19, 0.000, 0.000, 0.000, 14:27:13.431
73, 0.72, -59.45, 0.00, 13.76, 0.000, 0.000, 0.000, 14:27:13.446
74, -10.93, -62.96, 0.00, 10.71, 0.000, 0.000, 0.000, 14:27:13.446
75, -8.02, -61.25, 0.00, 8.59, 0.000, 0.000, 0.000, 14:27:13.460
76, -1.46, -61.68, 0.00, 9.64, 0.000, 0.000, 0.000, 14:27:13.460
77, 3.31, -59.83, 0.00, 8.50, 0.000, 0.000, 0.000, 14:27:13.460
78, -10.42, -66.05, 0.00, 12.99, 0.000, 0.000, 0.000, 14:27:13.460
79, -14.31, -67.73, 0.00, 8.80, 0.000, 0.000, 0.000, 14:27:13.475
80, 3.74, -66.53, 0.00, 9.85, 0.000, 0.000, 0.000, 14:27:13.475
81, -1.01, -62.70, 0.00, 8.18, 0.000, 0.000, 0.000, 14:27:13.490
82, -8.92, -66.35, 0.00, 10.20, 0.000, 0.000, 0.000, 14:27:13.490
83, -10.43, -67.31, 0.00, 4.99, 0.000, 0.000, 0.000, 14:27:13.491
84, -1.88, -64.44, 0.00, 6.98, 0.000, 0.000, 0.000, 14:27:13.491
85, -1.70, -61.93, 0.00, 5.02, 0.000, 0.000, 0.000, 14:27:13.512
86, -11.09, -67.82, 0.00, 6.22, 0.000, 0.000, 0.000, 14:27:13.512
87, -13.87, -68.61, 0.00, 11.04, 0.000, 0.000, 0.000, 14:27:13.521
88, -3.61, -64.46, 0.00, 9.27, 0.000, 0.000, 0.000, 14:27:13.521
89, 5.09, -59.77, 0.00, 10.91, 0.000, 0.000, 0.000, 14:27:13.521
90, -9.31, -65.50, 0.00, 8.92, 0.000, 0.000, 0.000, 14:27:13.521
91, -9.43, -71.29, 0.00, 6.80, 0.000, 0.000, 0.000, 14:27:13.535
92, 8.13, -65.86, 0.00, 6.00, 0.000, 0.000, 0.000, 14:27:13.535
93, 3.97, -64.45, 0.00, 8.44, 0.000, 0.000, 0.000, 14:27:13.550
94, -12.10, -64.18, 0.00, 12.00, 0.000, 0.000, 0.000, 14:27:13.551
95, -10.91, -64.17, 0.00, 8.70, 0.000, 0.000, 0.000, 14:27:13.551
96, -1.03, -63.05, 0.00, 7.28, 0.000, 0.000, 0.000, 14:27:13.551
97, -0.91, -57.98, 0.00, 6.92, 0.000, 0.000, 0.000, 14:27:13.566
98, -10.94, -63.90, 0.00, 7.38, 0.000, 0.000, 0.000, 14:27:13.566
99, -9.85, -64.42, 0.00, 8.98, 0.000, 0.000, 0.000, 14:27:13.581
100, -5.39, -61.10, 0.00, 8.75, 0.000, 0.000, 0.000, 14:27:13.581
101, 7.15, -61.01, 0.00, 6.50, 0.000, 0.000, 0.000, 14:27:13.581
102, -8.87, -63.02, 0.00, 11.67, 0.000, 0.000, 0.000, 14:27:13.581
103, -16.68, -67.31, 0.00, 11.71, 0.000, 0.000, 0.000, 14:27:13.595
104, 3.95, -63.32, 0.00, 11.71, 0.000, 0.000, 0.000, 14:27:13.595
105, 7.54, -57.06, 0.00, 8.69, 0.000, 0.000, 0.000, 14:27:13.611
106, -8.50, -59.78, 0.00, 9.49, 0.000, 0.000, 0.000, 14:27:13.611
107, -7.67, -62.37, 0.00, 9.84, 0.000, 0.000, 0.000, 14:27:13.611
108, 0.08, -63.91, 0.00, 10.85, 0.000, 0.000, 0.000, 14:27:13.611
109, -0.84, -61.68, 0.00, 11.41, 0.000, 0.000, 0.000, 14:27:13.625
110, -3.61, -62.79, 0.00, 7.04, 0.000, 0.000, 0.000, 14:27:13.625
111, -9.63, -70.82, 0.00, 8.94, 0.000, 0.000, 0.000, 14:27:13.640
112, -4.40, -63.41, 0.00, 9.16, 0.000, 0.000, 0.000, 14:27:13.641
113, 6.76, -63.11, 0.00, 10.29, 0.000, 0.000, 0.000, 14:27:13.641
114, -8.70, -64.00, 0.00, 5.97, 0.000, 0.000, 0.000, 14:27:13.641
115, -10.49, -68.40, 0.00, 7.57, 0.000, 0.000, 0.000, 14:27:13.656
116, 0.47, -68.46, 0.00, 7.78, 0.000, 0.000, 0.000, 14:27:13.656
117, -1.27, -62.61, 0.00, 10.22, 0.000, 0.000, 0.000, 14:27:13.670
118, -11.84, -64.33, 0.00, 6.73, 0.000, 0.000, 0.000, 14:27:13.670
119, -6.78, -66.89, 0.00, 10.43, 0.000, 0.000, 0.000, 14:27:13.671
120, -2.77, -66.97, 0.00, 6.42, 0.000, 0.000, 0.000, 14:27:13.671
121, 3.70, -59.25, 0.00, 10.04, 0.000, 0.000, 0.000, 14:27:13.685
122, -4.79, -64.01, 0.00, 8.16, 0.000, 0.000, 0.000, 14:27:13.686
123, -11.12, -70.51, 0.00, 14.13, 0.000, 0.000, 0.000, 14:27:13.701
124, 1.63, -63.78, 0.00, 7.45, 0.000, 0.000, 0.000, 14:27:13.701
125, 13.67, -59.20, 0.00, 9.45, 0.000, 0.000, 0.000, 14:27:13.701
126, -12.68, -64.18, 0.00, 9.16, 0.000, 0.000, 0.000, 14:27:13.701
127, -13.80, -70.97, 0.00, 6.94, 0.000, 0.000, 0.000, 14:27:13.716
128, 17.92, -66.38, 0.00, 6.02, 0.000, 0.000, 0.000, 14:27:13.716
129, 0.50, -62.18, 0.00, 9.34, 0.000, 0.000, 0.000, 14:27:13.731
130, -13.17, -66.48, 0.00, 9.41, 0.000, 0.000, 0.000, 14:27:13.731
131, -10.68, -66.65, 0.00, 6.57, 0.000, 0.000, 0.000, 14:27:13.731
132, -0.89, -61.12, 0.00, 9.67, 0.000, 0.000, 0.000, 14:27:13.731
133, -2.40, -54.27, 0.00, 9.33, 0.000, 0.000, 0.000, 14:27:13.745
134, -11.21, -59.77, 0.00, 10.83, 0.000, 0.000, 0.000, 14:27:13.745
135, -11.19, -65.99, 0.00, 10.30, 0.000, 0.000, 0.000, 14:27:13.760
136, 0.17, -59.61, 0.00, 10.94, 0.000, 0.000, 0.000, 14:27:13.760
137, 8.87, -58.30, 0.00, 11.29, 0.000, 0.000, 0.000, 14:27:13.760
138, -8.98, -59.64, 0.00, 10.45, 0.000, 0.000, 0.000, 14:27:13.761
139, -12.67, -66.40, 0.00, 11.38, 0.000, 0.000, 0.000, 14:27:13.775
140, 4.92, -63.16, 0.00, 11.60, 0.000, 0.000, 0.000, 14:27:13.776
141, -1.21, -59.91, 0.00, 8.43, 0.000, 0.000, 0.000, 14:27:13.790
142, -4.84, -62.39, 0.00, 9.29, 0.000, 0.000, 0.000, 14:27:13.790
143, -6.74, -65.74, 0.00, 8.32, 0.000, 0.000, 0.000, 14:27:13.791
144, 1.12, -59.45, 0.00, 9.39, 0.000, 0.000, 0.000, 14:27:13.791
145, -0.39, -61.25, 0.00, 8.55, 0.000, 0.000, 0.000, 14:27:13.805
146, -2.24, -62.86, 0.00, 9.05, 0.000, 0.000, 0.000, 14:27:13.805
147, -9.33, -65.59, 0.00, 10.16, 0.000, 0.000, 0.000, 14:27:13.821
148, 11.96, -61.79, 0.00, 12.54, 0.000, 0.000, 0.000, 14:27:13.821
149, 7.64, -61.64, 0.00, 9.35, 0.000, 0.000, 0.000, 14:27:13.821
150, -8.82, -68.01, 0.00, 8.39, 0.000, 0.000, 0.000, 14:27:13.821
151, -4.51, -67.67, 0.00, 9.43, 0.000, 0.000, 0.000, 14:27:13.836
152, 4.66, -65.34, 0.00, 9.66, 0.000, 0.000, 0.000, 14:27:13.836
153, -1.80, -63.29, 0.00, 9.34, 0.000, 0.000, 0.000, 14:27:13.851
154, -7.47, -65.88, 0.00, 11.49, 0.000, 0.000, 0.000, 14:27:13.851
155, -8.53, -70.65, 0.00, 10.49, 0.000, 0.000, 0.000, 14:27:13.851
156, 1.01, -65.31, 0.00, 11.76, 0.000, 0.000, 0.000, 14:27:13.851
157, 11.18, -60.20, 0.00, 9.01, 0.000, 0.000, 0.000, 14:27:13.866
158, -4.93, -62.93, 0.00, 6.58, 0.000, 0.000, 0.000, 14:27:13.866
159, -11.92, -64.81, 0.00, 11.49, 0.000, 0.000, 0.000, 14:27:13.881
160, -0.27, -57.83, 0.00, 4.45, 0.000, 0.000, 0.000, 14:27:13.881
161, 11.29, -56.28, 0.00, 7.76, 0.000, 0.000, 0.000, 14:27:13.881
162, -5.38, -60.12, 0.00, 6.11, 0.000, 0.000, 0.000, 14:27:13.881
163, -10.90, -66.24, 0.00, 7.03, 0.000, 0.000, 0.000, 14:27:13.896
164, 9.09, -64.03, 0.00, 8.66, 0.000, 0.000, 0.000, 14:27:13.896
165, -2.06, -56.91, 0.00, 8.79, 0.000, 0.000, 0.000, 14:27:13.910
166, -4.24, -64.00, 0.00, 11.88, 0.000, 0.000, 0.000, 14:27:13.911
167, -3.64, -71.32, 0.00, 5.79, 0.000, 0.000, 0.000, 14:27:13.911
168, -3.87, -63.26, 0.00, 8.15, 0.000, 0.000, 0.000, 14:27:13.911
169, 2.33, -58.94, 0.00, 7.69, 0.000, 0.000, 0.000, 14:27:13.942
170, -6.65, -59.63, 0.00, 14.27, 0.000, 0.000, 0.000, 14:27:13.942
171, -6.18, -65.23, 0.00, 9.61, 0.000, 0.000, 0.000, 14:27:13.942
172, -2.00, -65.10, 0.00, 7.84, 0.000, 0.000, 0.000, 14:27:13.942
173, 11.56, -58.35, 0.00, 7.90, 0.000, 0.000, 0.000, 14:27:13.942
174, -7.59, -61.01, 0.00, 5.79, 0.000, 0.000, 0.000, 14:27:13.943
175, -8.45, -62.53, 0.00, 9.77, 0.000, 0.000, 0.000, 14:27:13.955
176, 7.13, -57.47, 0.00, 8.96, 0.000, 0.000, 0.000, 14:27:13.955
177, 1.65, -54.17, 0.00, 8.54, 0.000, 0.000, 0.000, 14:27:13.970
178, -2.19, -59.08, 0.00, 8.47, 0.000, 0.000, 0.000, 14:27:13.971
179, -4.50, -60.27, 0.00, 6.44, 0.000, 0.000, 0.000, 14:27:13.971
180, -2.24, -58.66, 0.00, 12.23, 0.000, 0.000, 0.000, 14:27:13.971
181, -1.03, -52.58, 0.00, 9.66, 0.000, 0.000, 0.000, 14:27:13.986
182, -3.72, -58.25, 0.00, 11.19, 0.000, 0.000, 0.000, 14:27:13.986
183, -8.70, -61.41, 0.00, 8.80, 0.000, 0.000, 0.000, 14:27:14.001
184, -0.61, -57.64, 0.00, 9.22, 0.000, 0.000, 0.000, 14:27:14.001
185, 5.34, -56.07, 0.00, 8.07, 0.000, 0.000, 0.000, 14:27:14.001
186, -3.65, -59.14, 0.00, 7.97, 0.000, 0.000, 0.000, 14:27:14.001
187, -10.54, -59.18, 0.00, 7.86, 0.000, 0.000, 0.000, 14:27:14.015
188, 20.84, -56.87, 0.00, 5.67, 0.000, 0.000, 0.000, 14:27:14.015
189, 6.97, -52.85, 0.00, 10.07, 0.000, 0.000, 0.000, 14:27:14.030
190, -6.59, -57.91, 0.00, 10.01, 0.000, 0.000, 0.000, 14:27:14.030
191, -7.75, -59.55, 0.00, 6.05, 0.000, 0.000, 0.000, 14:27:14.030
192, -1.30, -59.19, 0.00, 9.85, 0.000, 0.000, 0.000, 14:27:14.031
193, -0.41, -57.45, 0.00, 9.82, 0.000, 0.000, 0.000, 14:27:14.045
194, -5.38, -59.01, 0.00, 7.36, 0.000, 0.000, 0.000, 14:27:14.045
195, -9.28, -61.46, 0.00, 9.36, 0.000, 0.000, 0.000, 14:27:14.060
196, -0.21, -57.32, 0.00, 8.12, 0.000, 0.000, 0.000, 14:27:14.061
197, 5.62, -51.49, 0.00, 8.84, 0.000, 0.000, 0.000, 14:27:14.061
198, -10.01, -53.85, 0.00, 9.36, 0.000, 0.000, 0.000, 14:27:14.061
199, -10.66, -60.11, 0.00, 6.42, 0.000, 0.000, 0.000, 14:27:14.076
200, 9.48, -56.49, 0.00, 6.91, 0.000, 0.000, 0.000, 14:27:14.076
0, -0.98, -53.06, 0.00, 11.32, 0.000, 0.000, 0.000, 14:27:14.076
1, -9.49, -54.12, 0.00, 7.13, 0.000, 0.000, 0.000, 14:27:14.090
2, -5.79, -60.47, 0.00, 9.81, 0.000, 0.000, 0.000, 14:27:14.090
3, 0.26, -55.82, 0.00, 7.76, 0.000, 0.000, 0.000, 14:27:14.105
4, 8.37, -51.43, 0.00, 8.31, 0.000, 0.000, 0.000, 14:27:14.105
5, 0.86, -53.63, 0.00, 8.09, 0.000, 0.000, 0.000, 14:27:14.106
6, -13.51, -58.43, 0.00, 9.10, 0.000, 0.000, 0.000, 14:27:14.106
7, -4.78, -53.81, 0.00, 7.98, 0.000, 0.000, 0.000, 14:27:14.121
8, 12.85, -49.76, 0.00, 9.92, 0.000, 0.000, 0.000, 14:27:14.121
9, -6.96, -52.47, 0.00, 12.15, 0.000, 0.000, 0.000, 14:27:14.136
10, -13.54, -54.31, 0.00, 6.98, 0.000, 0.000, 0.000, 14:27:14.136
11, 3.01, -54.92, 0.00, 9.90, 0.000, 0.000, 0.000, 14:27:14.136
12, 0.33, -51.77, 0.00, 7.29, 0.000, 0.000, 0.000, 14:27:14.136
13, -5.86, -58.15, 0.00, 9.81, 0.000, 0.000, 0.000, 14:27:14.151
14, -8.12, -63.08, 0.00, 6.78, 0.000, 0.000, 0.000, 14:27:14.151
15, -3.66, -55.78, 0.00, 6.94, 0.000, 0.000, 0.000, 14:27:14.166
16, -1.19, -56.43, 0.00, 5.60, 0.000, 0.000, 0.000, 14:27:14.166
17, -4.69, -55.61, 0.00, 8.52, 0.000, 0.000, 0.000, 14:27:14.166
18, -4.46, -63.20, 0.00, 3.75, 0.000, 0.000, 0.000, 14:27:14.166
19, -2.67, -58.23, 0.00, 6.69, 0.000, 0.000, 0.000, 14:27:14.181
20, 26.45, -52.29, 0.00, 12.44, 0.000, 0.000, 0.000, 14:27:14.181
21, -6.95, -57.41, 0.00, 9.12, 0.000, 0.000, 0.000, 14:27:14.196
22, -8.60, -58.64, 0.00, 6.18, 0.000, 0.000, 0.000, 14:27:14.196
23, 0.53, -53.82, 0.00, 7.20, 0.000, 0.000, 0.000, 14:27:14.203
24, -1.88, -51.05, 0.00, 8.56, 0.000, 0.000, 0.000, 14:27:14.203
25, -8.79, -56.25, 0.00, 9.88, 0.000, 0.000, 0.000, 14:27:14.210
26, -13.52, -58.03, 0.00, 11.50, 0.000, 0.000, 0.000, 14:27:14.210
27, -4.31, -55.14, 0.00, 10.57, 0.000, 0.000, 0.000, 14:27:14.226
28, -1.91, -53.28, 0.00, 7.30, 0.000, 0.000, 0.000, 14:27:14.226
29, -1.34, -51.56, 0.00, 8.40, 0.000, 0.000, 0.000, 14:27:14.226
30, -10.70, -56.58, 0.00, 9.96, 0.000, 0.000, 0.000, 14:27:14.226
31, -3.31, -52.30, 0.00, 11.04, 0.000, 0.000, 0.000, 14:27:14.242
32, 18.86, -52.44, 0.00, 13.46, 0.000, 0.000, 0.000, 14:27:14.242
33, -7.03, -52.03, 0.00, 8.07, 0.000, 0.000, 0.000, 14:27:14.256
34, -13.30, -56.97, 0.00, 13.95, 0.000, 0.000, 0.000, 14:27:14.256
35, 1.16, -52.04, 0.00, 8.12, 0.000, 0.000, 0.000, 14:27:14.256
36, -1.27, -48.75, 0.00, 10.38, 0.000, 0.000, 0.000, 14:27:14.256
37, -8.53, -50.47, 0.00, 4.88, 0.000, 0.000, 0.000, 14:27:14.270
38, -10.66, -53.97, 0.00, 6.84, 0.000, 0.000, 0.000, 14:27:14.270
39, -1.43, -49.33, 0.00, 9.54, 0.000, 0.000, 0.000, 14:27:14.285
40, 1.39, -46.54, 0.00, 6.29, 0.000, 0.000, 0.000, 14:27:14.285
41, -6.55, -47.46, 0.00, 6.89, 0.000, 0.000, 0.000, 14:27:14.285
42, -6.27, -53.67, 0.00, 8.38, 0.000, 0.000, 0.000, 14:27:14.285
43, -1.19, -53.40, 0.00, 6.90, 0.000, 0.000, 0.000, 14:27:14.300
44, 12.92, -46.06, 0.00, 8.76, 0.000, 0.000, 0.000, 14:27:14.300
45, -9.45, -45.56, 0.00, 6.82, 0.000, 0.000, 0.000, 14:27:14.315
46, -11.34, -51.37, 0.00, 7.92, 0.000, 0.000, 0.000, 14:27:14.315
47, -0.62, -48.50, 0.00, 6.87, 0.000, 0.000, 0.000, 14:27:14.316
48, 2.82, -48.18, 0.00, 9.15, 0.000, 0.000, 0.000, 14:27:14.316
49, -4.79, -53.72, 0.00, 9.39, 0.000, 0.000, 0.000, 14:27:14.330
50, -5.50, -54.51, 0.00, 12.82, 0.000, 0.000, 0.000, 14:27:14.330
51, -1.01, -52.84, 0.00, 5.75, 0.000, 0.000, 0.000, 14:27:14.346
52, 3.55, -49.62, 0.00, 9.34, 0.000, 0.000, 0.000, 14:27:14.346
53, -8.82, -51.26, 0.00, 4.39, 0.000, 0.000, 0.000, 14:27:14.346
54, -17.07, -54.77, 0.00, 7.69, 0.000, 0.000, 0.000, 14:27:14.346
55, -3.08, -52.75, 0.00, 8.84, 0.000, 0.000, 0.000, 14:27:14.361
56, 9.66, -48.24, 0.00, 8.79, 0.000, 0.000, 0.000, 14:27:14.361
57, -13.56, -47.96, 0.00, 5.48, 0.000, 0.000, 0.000, 14:27:14.376
58, -9.51, -54.51, 0.00, 8.36, 0.000, 0.000, 0.000, 14:27:14.376
59, 8.28, -48.34, 0.00, 6.70, 0.000, 0.000, 0.000, 14:27:14.376
60, 2.51, -45.10, 0.00, 8.73, 0.000, 0.000, 0.000, 14:27:14.376
61, -6.90, -48.04, 0.00, 7.14, 0.000, 0.000, 0.000, 14:27:14.390
62, -10.84, -52.17, 0.00, 7.81, 0.000, 0.000, 0.000, 14:27:14.390
63, -6.08, -48.00, 0.00, 5.72, 0.000, 0.000, 0.000, 14:27:14.405
64, -1.92, -50.24, 0.00, 11.57, 0.000, 0.000, 0.000, 14:27:14.405
65, -3.89, -51.75, 0.00, 11.72, 0.000, 0.000, 0.000, 14:27:14.406
66, -13.26, -50.79, 0.00, 8.59, 0.000, 0.000, 0.000, 14:27:14.406
67, -1.43, -53.45, 0.00, 7.27, 0.000, 0.000, 0.000, 14:27:14.421
68, 8.92, -46.33, 0.00, 10.15, 0.000, 0.000, 0.000, 14:27:14.421
69, -7.31, -48.33, 0.00, 12.45, 0.000, 0.000, 0.000, 14:27:14.435
70, -12.73, -51.94, 0.00, 14.92, 0.000, 0.000, 0.000, 14:27:14.436
71, -0.36, -54.22, 0.00, 12.61, 0.000, 0.000, 0.000, 14:27:14.436
72, -0.60, -47.44, 0.00, 12.25, 0.000, 0.000, 0.000, 14:27:14.436
73, -1.39, -52.13, 0.00, 8.16, 0.000, 0.000, 0.000, 14:27:14.450
74, -10.09, -57.95, 0.00, 11.39, 0.000, 0.000, 0.000, 14:27:14.450
75, -0.62, -51.66, 0.00, 7.99, 0.000, 0.000, 0.000, 14:27:14.466
76, -0.67, -51.39, 0.00, 8.59, 0.000, 0.000, 0.000, 14:27:14.466
77, -3.03, -52.14, 0.00, 10.77, 0.000, 0.000, 0.000, 14:27:14.472
78, -8.14, -58.28, 0.00, 9.65, 0.000, 0.000, 0.000, 14:27:14.472
79, -3.52, -56.39, 0.00, 4.32, 0.000, 0.000, 0.000, 14:27:14.481
80, 20.62, -50.59, 0.00, 8.07, 0.000, 0.000, 0.000, 14:27:14.482
81, -8.64, -51.84, 0.00, 11.19, 0.000, 0.000, 0.000, 14:27:14.496
82, -8.29, -57.67, 0.00, 10.76, 0.000, 0.000, 0.000, 14:27:14.496
83, 0.26, -52.46, 0.00, 8.03, 0.000, 0.000, 0.000, 14:27:14.496
84, -3.91, -51.90, 0.00, 8.02, 0.000, 0.000, 0.000, 14:27:14.496
85, -9.06, -54.17, 0.00, 5.05, 0.000, 0.000, 0.000, 14:27:14.511
86, -11.13, -58.33, 0.00, 4.90, 0.000, 0.000, 0.000, 14:27:14.511
87, -3.55, -53.59, 0.00, 7.51, 0.000, 0.000, 0.000, 14:27:14.526
88, -2.10, -50.55, 0.00, 4.14, 0.000, 0.000, 0.000, 14:27:14.526
89, -1.04, -54.55, 0.00, 11.22, 0.000, 0.000, 0.000, 14:27:14.526
90, -8.80, -57.35, 0.00, 9.48, 0.000, 0.000, 0.000, 14:27:14.526
91, 1.23, -55.40, 0.00, 12.25, 0.000, 0.000, 0.000, 14:27:14.540
92, 13.03, -52.34, 0.00, 9.33, 0.000, 0.000, 0.000, 14:27:14.540
93, -11.84, -52.68, 0.00, 6.17, 0.000, 0.000, 0.000, 14:27:14.555
94, -19.59, -54.60, 0.00, 5.56, 0.000, 0.000, 0.000, 14:27:14.555
95, 8.74, -49.94, 0.00, 8.59, 0.000, 0.000, 0.000, 14:27:14.555
96, 1.10, -51.22, 0.00, 10.77, 0.000, 0.000, 0.000, 14:27:14.555
97, -5.39, -54.21, 0.00, 11.44, 0.000, 0.000, 0.000, 14:27:14.570
98, -10.40, -58.49, 0.00, 12.31, 0.000, 0.000, 0.000, 14:27:14.570
99, 1.29, -56.48, 0.00, 11.31, 0.000, 0.000, 0.000, 14:27:14.585
100, 2.90, -53.47, 0.00, 12.07, 0.000, 0.000, 0.000, 14:27:14.585
101, -1.05, -54.32, 0.00, 9.07, 0.000, 0.000, 0.000, 14:27:14.586
102, -11.09, -57.66, 0.00, 2.81, 0.000, 0.000, 0.000, 14:27:14.586
103, -2.50, -52.63, 0.00, 6.15, 0.000, 0.000, 0.000, 14:27:14.600
104, 9.28, -48.71, 0.00, 7.80, 0.000, 0.000, 0.000, 14:27:14.600
105, -6.77, -51.84, 0.00, 10.80, 0.000, 0.000, 0.000, 14:27:14.616
106, -9.48, -58.28, 0.00, 8.78, 0.000, 0.000, 0.000, 14:27:14.616
107, 4.51, -54.90, 0.00, 12.44, 0.000, 0.000, 0.000, 14:27:14.616
108, -1.54, -49.32, 0.00, 9.90, 0.000, 0.000, 0.000, 14:27:14.616
109, -4.84, -51.38, 0.00, 10.10, 0.000, 0.000, 0.000, 14:27:14.631
110, -8.11, -55.39, 0.00, 11.33, 0.000, 0.000, 0.000, 14:27:14.631
111, 1.89, -52.86, 0.00, 10.07, 0.000, 0.000, 0.000, 14:27:14.660
112, 2.79, -53.36, 0.00, 10.54, 0.000, 0.000, 0.000, 14:27:14.660
113, -4.89, -54.33, 0.00, 10.88, 0.000, 0.000, 0.000, 14:27:14.660
114, -8.87, -59.06, 0.00, 10.33, 0.000, 0.000, 0.000, 14:27:14.660
115, -0.08, -58.16, 0.00, 7.85, 0.000, 0.000, 0.000, 14:27:14.662
116, 10.54, -51.04, 0.00, 9.16, 0.000, 0.000, 0.000, 14:27:14.662
117, -7.45, -58.34, 0.00, 10.14, 0.000, 0.000, 0.000, 14:27:14.663
118, -10.59, -62.69, 0.00, 9.34, 0.000, 0.000, 0.000, 14:27:14.663
119, 5.96, -55.51, 0.00, 7.90, 0.000, 0.000, 0.000, 14:27:14.675
120, 2.87, -55.36, 0.00, 7.18, 0.000, 0.000, 0.000, 14:27:14.676
121, -4.46, -57.50, 0.00, 7.11, 0.000, 0.000, 0.000, 14:27:14.690
122, -6.94, -61.25, 0.00, 8.25, 0.000, 0.000, 0.000, 14:27:14.690
123, 0.12, -57.77, 0.00, 7.22, 0.000, 0.000, 0.000, 14:27:14.706
124, 6.13, -53.37, 0.00, 10.22, 0.000, 0.000, 0.000, 14:27:14.706
125, -2.53, -55.53, 0.00, 10.00, 0.000, 0.000, 0.000, 14:27:14.706
126, -10.11, -60.30, 0.00, 6.04, 0.000, 0.000, 0.000, 14:27:14.706
127, 15.77, -55.41, 0.00, 8.43, 0.000, 0.000, 0.000, 14:27:14.720
128, 8.21, -57.85, 0.00, 8.38, 0.000, 0.000, 0.000, 14:27:14.720
129, -5.28, -52.40, 0.00, 14.54, 0.000, 0.000, 0.000, 14:27:14.735
130, -12.41, -58.38, 0.00, 8.38, 0.000, 0.000, 0.000, 14:27:14.735
131, 2.67, -55.93, 0.00, 4.65, 0.000, 0.000, 0.000, 14:27:14.736
132, -2.10, -49.51, 0.00, 8.44, 0.000, 0.000, 0.000, 14:27:14.736
133, -6.06, -48.36, 0.00, 8.38, 0.000, 0.000, 0.000, 14:27:14.750
134, -3.70, -51.86, 0.00, 9.19, 0.000, 0.000, 0.000, 14:27:14.750
135, -3.29, -48.32, 0.00, 6.81, 0.000, 0.000, 0.000, 14:27:14.766
136, -2.22, -48.52, 0.00, 7.11, 0.000, 0.000, 0.000, 14:27:14.766
137, -9.43, -48.99, 0.00, 5.15, 0.000, 0.000, 0.000, 14:27:14.766
138, -13.93, -52.62, 0.00, 8.54, 0.000, 0.000, 0.000, 14:27:14.766
139, -1.24, -48.35, 0.00, 10.94, 0.000, 0.000, 0.000, 14:27:14.781
140, 6.74, -50.82, 0.00, 8.88, 0.000, 0.000, 0.000, 14:27:14.781
141, -2.01, -49.42, 0.00, 8.52, 0.000, 0.000, 0.000, 14:27:14.796
142, -9.15, -51.98, 0.00, 10.65, 0.000, 0.000, 0.000, 14:27:14.796
143, 3.78, -50.18, 0.00, 11.20, 0.000, 0.000, 0.000, 14:27:14.796
144, -1.81, -45.37, 0.00, 13.36, 0.000, 0.000, 0.000, 14:27:14.796
145, -7.50, -47.81, 0.00, 8.44, 0.000, 0.000, 0.000, 14:27:14.810
146, -4.12, -52.76, 0.00, 13.34, 0.000, 0.000, 0.000, 14:27:14.810
147, -3.14, -47.80, 0.00, 7.85, 0.000, 0.000, 0.000, 14:27:14.825
148, 4.37, -43.92, 0.00, 11.56, 0.000, 0.000, 0.000, 14:27:14.826
149, -2.13, -43.72, 0.00, 9.15, 0.000, 0.000, 0.000, 14:27:14.826
150, -3.80, -47.63, 0.00, 7.90, 0.000, 0.000, 0.000, 14:27:14.826
151, -2.75, -46.03, 0.00, 11.83, 0.000, 0.000, 0.000, 14:27:14.841
152, 12.82, -43.37, 0.00, 7.26, 0.000, 0.000, 0.000, 14:27:14.841
153, -5.40, -49.25, 0.00, 10.64, 0.000, 0.000, 0.000, 14:27:14.856
154, -8.59, -49.90, 0.00, 12.61, 0.000, 0.000, 0.000, 14:27:14.856
155, 4.73, -49.50, 0.00, 7.93, 0.000, 0.000, 0.000, 14:27:14.856
156, 1.69, -47.57, 0.00, 6.37, 0.000, 0.000, 0.000, 14:27:14.856
157, -8.87, -48.50, 0.00, 11.87, 0.000, 0.000, 0.000, 14:27:14.871
158, -5.34, -51.36, 0.00, 7.29, 0.000, 0.000, 0.000, 14:27:14.871
159, 0.42, -51.81, 0.00, 5.62, 0.000, 0.000, 0.000, 14:27:14.887
160, 5.38, -46.17, 0.00, 10.03, 0.000, 0.000, 0.000, 14:27:14.887
161, 0.68, -46.80, 0.00, 11.90, 0.000, 0.000, 0.000, 14:27:14.887
162, -5.46, -53.07, 0.00, 11.20, 0.000, 0.000, 0.000, 14:27:14.887
163, -0.63, -48.74, 0.00, 6.84, 0.000, 0.000, 0.000, 14:27:14.901
164, 13.32, -45.64, 0.00, 7.06, 0.000, 0.000, 0.000, 14:27:14.901
165, -3.70, -45.27, 0.00, 9.65, 0.000, 0.000, 0.000, 14:27:14.915
166, -7.06, -49.57, 0.00, 7.93, 0.000, 0.000, 0.000, 14:27:14.915
167, -0.32, -53.75, 0.00, 10.77, 0.000, 0.000, 0.000, 14:27:14.916
168, -0.39, -50.50, 0.00, 13.21, 0.000, 0.000, 0.000, 14:27:14.917
169, -5.91, -53.04, 0.00, 9.35, 0.000, 0.000, 0.000, 14:27:14.931
170, -11.48, -54.17, 0.00, 8.73, 0.000, 0.000, 0.000, 14:27:14.931
171, -1.56, -51.80, 0.00, 9.04, 0.000, 0.000, 0.000, 14:27:14.945
172, 6.40, -48.07, 0.00, 8.56, 0.000, 0.000, 0.000, 14:27:14.945
173, -1.11, -50.21, 0.00, 6.81, 0.000, 0.000, 0.000, 14:27:14.946
174, -14.04, -51.11, 0.00, 9.10, 0.000, 0.000, 0.000, 14:27:14.946
175, 7.55, -50.47, 0.00, 8.27, 0.000, 0.000, 0.000, 14:27:14.967
176, 18.72, -50.32, 0.00, 10.79, 0.000, 0.000, 0.000, 14:27:14.967
177, -8.60, -49.80, 0.00, 9.97, 0.000, 0.000, 0.000, 14:27:14.977
178, -15.54, -52.29, 0.00, 10.39, 0.000, 0.000, 0.000, 14:27:14.977
179, 3.57, -50.31, 0.00, 8.42, 0.000, 0.000, 0.000, 14:27:14.977
180, 2.40, -50.78, 0.00, 11.94, 0.000, 0.000, 0.000, 14:27:14.977
181, -8.95, -47.65, 0.00, 6.50, 0.000, 0.000, 0.000, 14:27:14.990
182, -11.17, -52.59, 0.00, 8.32, 0.000, 0.000, 0.000, 14:27:14.990
183, -3.93, -48.56, 0.00, 7.71, 0.000, 0.000, 0.000, 14:27:15.005
184, 0.91, -48.87, 0.00, 4.94, 0.000, 0.000, 0.000, 14:27:15.005
185, -7.27, -46.39, 0.00, 9.79, 0.000, 0.000, 0.000, 14:27:15.005
186, -8.79, -52.06, 0.00, 8.92, 0.000, 0.000, 0.000, 14:27:15.006
187, -3.33, -51.94, 0.00, 10.76, 0.000, 0.000, 0.000, 14:27:15.021
188, 10.78, -48.95, 0.00, 8.93, 0.000, 0.000, 0.000, 14:27:15.021
189, -8.34, -50.63, 0.00, 8.96, 0.000, 0.000, 0.000, 14:27:15.036
190, -14.13, -51.29, 0.00, 7.92, 0.000, 0.000, 0.000, 14:27:15.036
191, 5.51, -50.71, 0.00, 6.78, 0.000, 0.000, 0.000, 14:27:15.036
192, -2.35, -46.81, 0.00, 3.20, 0.000, 0.000, 0.000, 14:27:15.036
193, -7.62, -47.37, 0.00, 4.16, 0.000, 0.000, 0.000, 14:27:15.050
194, -6.13, -51.28, 0.00, 13.17, 0.000, 0.000, 0.000, 14:27:15.050
195, 1.54, -46.46, 0.00, 8.37, 0.000, 0.000, 0.000, 14:27:15.066
196, -0.43, -49.18, 0.00, 8.00, 0.000, 0.000, 0.000, 14:27:15.066
197, -2.79, -49.96, 0.00, 10.16, 0.000, 0.000, 0.000, 14:27:15.066
198, -9.86, -54.28, 0.00, 8.85, 0.000, 0.000, 0.000, 14:27:15.066
199, -3.67, -50.75, 0.00, 5.93, 0.000, 0.000, 0.000, 14:27:15.080
200, 24.06, -48.53, 0.00, 9.16, 0.000, 0.000, 0.000, 14:27:15.080
0, -0.27, -47.46, 0.00, 8.61, 0.000, 0.000, 0.000, 14:27:15.080
1, -10.08, -51.91, 0.00, 8.20, 0.000, 0.000, 0.000, 14:27:15.095
2, -0.54, -48.08, 0.00, 7.97, 0.000, 0.000, 0.000, 14:27:15.095
3, 4.12, -48.76, 0.00, 5.49, 0.000, 0.000, 0.000, 14:27:15.110
4, -2.27, -49.41, 0.00, 7.58, 0.000, 0.000, 0.000, 14:27:15.110
5, -4.48, -53.10, 0.00, 9.03, 0.000, 0.000, 0.000, 14:27:15.110
6, -2.22, -50.94, 0.00, 5.73, 0.000, 0.000, 0.000, 14:27:15.110
7, 3.77, -43.34, 0.00, 9.73, 0.000, 0.000, 0.000, 14:27:15.126
8, -5.62, -48.02, 0.00, 6.69, 0.000, 0.000, 0.000, 14:27:15.126
9, -7.49, -53.67, 0.00, 8.86, 0.000, 0.000, 0.000, 14:27:15.140
10, -0.55, -53.43, 0.00, 9.47, 0.000, 0.000, 0.000, 14:27:15.141
11, 5.20, -47.12, 0.00, 9.56, 0.000, 0.000, 0.000, 14:27:15.141
12, 0.07, -48.03, 0.00, 13.27, 0.000, 0.000, 0.000, 14:27:15.141
13, -9.45, -50.69, 0.00, 8.81, 0.000, 0.000, 0.000, 14:27:15.156
14, -3.41, -51.73, 0.00, 5.54, 0.000, 0.000, 0.000, 14:27:15.156
15, -2.95, -48.45, 0.00, 9.71, 0.000, 0.000, 0.000, 14:27:15.170
16, -12.72, -49.66, 0.00, 9.31, 0.000, 0.000, 0.000, 14:27:15.170
17, -4.40, -48.24, 0.00, 6.45, 0.000, 0.000, 0.000, 14:27:15.171
18, -3.46, -50.11, 0.00, 8.06, 0.000, 0.000, 0.000, 14:27:15.171
19, -4.48, -45.74, 0.00, 8.85, 0.000, 0.000, 0.000, 14:27:15.186
20, -2.44, -44.32, 0.00, 6.88, 0.000, 0.000, 0.000, 14:27:15.186
21, -5.62, -50.77, 0.00, 7.10, 0.000, 0.000, 0.000, 14:27:15.216
22, -3.84, -53.07, 0.00, 8.42, 0.000, 0.000, 0.000, 14:27:15.216
23, 12.34, -48.93, 0.00, 8.93, 0.000, 0.000, 0.000, 14:27:15.216
24, -6.58, -47.82, 0.00, 7.53, 0.000, 0.000, 0.000, 14:27:15.216
25, -10.54, -51.47, 0.00, 8.97, 0.000, 0.000, 0.000, 14:27:15.217
26, 5.74, -50.91, 0.00, 6.24, 0.000, 0.000, 0.000, 14:27:15.217
27, 0.90, -46.22, 0.00, 8.41, 0.000, 0.000, 0.000, 14:27:15.224
28, -1.96, -46.46, 0.00, 8.78, 0.000, 0.000, 0.000, 14:27:15.224
29, -4.89, -51.53, 0.00, 7.12, 0.000, 0.000, 0.000, 14:27:15.231
30, -0.56, -53.53, 0.00, 9.10, 0.000, 0.000, 0.000, 14:27:15.231
31, 7.45, -47.48, 0.00, 8.35, 0.000, 0.000, 0.000, 14:27:15.246
32, -0.13, -52.18, 0.00, 3.12, 0.000, 0.000, 0.000, 14:27:15.246
33, -11.61, -53.64, 0.00, 6.21, 0.000, 0.000, 0.000, 14:27:15.260
34, 0.70, -52.63, 0.00, 6.94, 0.000, 0.000, 0.000, 14:27:15.260
35, 17.98, -46.75, 0.00, 9.21, 0.000, 0.000, 0.000, 14:27:15.260
36, -5.41, -46.55, 0.00, 8.08, 0.000, 0.000, 0.000, 14:27:15.261
37, -14.56, -51.90, 0.00, 9.55, 0.000, 0.000, 0.000, 14:27:15.276
38, 0.20, -51.20, 0.00, 9.97, 0.000, 0.000, 0.000, 14:27:15.276
39, -1.32, -46.33, 0.00, 10.08, 0.000, 0.000, 0.000, 14:27:15.290
40, -4.71, -44.62, 0.00, 8.64, 0.000, 0.000, 0.000, 14:27:15.291
41, -12.06, -46.62, 0.00, 13.07, 0.000, 0.000, 0.000, 14:27:15.291
42, -9.41, -45.62, 0.00, 6.77, 0.000, 0.000, 0.000, 14:27:15.292
43, -7.63, -46.00, 0.00, 7.33, 0.000, 0.000, 0.000, 14:27:15.306
44, -12.46, -40.68, 0.00, 9.95, 0.000, 0.000, 0.000, 14:27:15.306
45, -16.15, -45.18, 0.00, 8.51, 0.000, 0.000, 0.000, 14:27:15.321
46, -2.71, -47.91, 0.00, 7.41, 0.000, 0.000, 0.000, 14:27:15.321
47, 4.66, -43.90, 0.00, 9.13, 0.000, 0.000, 0.000, 14:27:15.321
48, -13.84, -49.59, 0.00, 10.33, 0.000, 0.000, 0.000, 14:27:15.321
49, -5.90, -50.85, 0.00, 10.77, 0.000, 0.000, 0.000, 14:27:15.336
50, 2.70, -49.99, 0.00, 12.21, 0.000, 0.000, 0.000, 14:27:15.336
51, -2.06, -47.81, 0.00, 6.24, 0.000, 0.000, 0.000, 14:27:15.352
52, -13.36, -45.88, 0.00, 10.92, 0.000, 0.000, 0.000, 14:27:15.352
53, -7.46, -44.79, 0.00, 3.61, 0.000, 0.000, 0.000, 14:27:15.352
54, -0.14, -49.88, 0.00, 4.21, 0.000, 0.000, 0.000, 14:27:15.352
55, 0.47, -46.58, 0.00, 9.68, 0.000, 0.000, 0.000, 14:27:15.366
56, -0.07, -45.57, 0.00, 11.80, 0.000, 0.000, 0.000, 14:27:15.366
57, -6.88, -48.35, 0.00, 5.88, 0.000, 0.000, 0.000, 14:27:15.381
58, -2.66, -51.07, 0.00, 7.15, 0.000, 0.000, 0.000, 14:27:15.381
59, 12.51, -47.99, 0.00, 13.57, 0.000, 0.000, 0.000, 14:27:15.381
60, -4.36, -48.20, 0.00, 9.43, 0.000, 0.000, 0.000, 14:27:15.381
61, -16.10, -53.63, 0.00, 6.71, 0.000, 0.000, 0.000, 14:27:15.395
62, 12.56, -50.23, 0.00, 11.63, 0.000, 0.000, 0.000, 14:27:15.395
63, 1.61, -45.48, 0.00, 13.04, 0.000, 0.000, 0.000, 14:27:15.411
64, -0.70, -49.84, 0.00, 12.04, 0.000, 0.000, 0.000, 14:27:15.411
65, -4.15, -55.41, 0.00, 8.46, 0.000, 0.000, 0.000, 14:27:15.411
66, -4.19, -52.89, 0.00, 11.42, 0.000, 0.000, 0.000, 14:27:15.411
67, 0.11, -51.45, 0.00, 7.17, 0.000, 0.000, 0.000, 14:27:15.425
68, -1.45, -52.95, 0.00, 8.91, 0.000, 0.000, 0.000, 14:27:15.425
69, -11.14, -58.22, 0.00, 9.51, 0.000, 0.000, 0.000, 14:27:15.441
70, -2.45, -60.94, 0.00, 12.25, 0.000, 0.000, 0.000, 14:27:15.441
71, 14.46, -52.64, 0.00, 12.81, 0.000, 0.000, 0.000, 14:27:15.441
72, -3.86, -56.46, 0.00, 11.10, 0.000, 0.000, 0.000, 14:27:15.441
73, -8.84, -60.54, 0.00, 9.86, 0.000, 0.000, 0.000, 14:27:15.456
74, 2.67, -57.82, 0.00, 4.72, 0.000, 0.000, 0.000, 14:27:15.456
75, 0.76, -56.31, 0.00, 9.02, 0.000, 0.000, 0.000, 14:27:15.471
76, -7.00, -55.83, 0.00, 11.06, 0.000, 0.000, 0.000, 14:27:15.471
77, -10.42, -58.41, 0.00, 6.59, 0.000, 0.000, 0.000, 14:27:15.471
78, -6.66, -57.14, 0.00, 9.15, 0.000, 0.000, 0.000, 14:27:15.471
79, 3.62, -53.69, 0.00, 10.12, 0.000, 0.000, 0.000, 14:27:15.486
80, -2.81, -57.67, 0.00, 11.51, 0.000, 0.000, 0.000, 14:27:15.486
81, -14.09, -60.20, 0.00, 6.12, 0.000, 0.000, 0.000, 14:27:15.500
82, -6.35, -58.68, 0.00, 8.31, 0.000, 0.000, 0.000, 14:27:15.500
83, 17.34, -55.95, 0.00, 9.76, 0.000, 0.000, 0.000, 14:27:15.501
84, -5.88, -56.33, 0.00, 7.50, 0.000, 0.000, 0.000, 14:27:15.501
85, -14.91, -60.92, 0.00, 7.90, 0.000, 0.000, 0.000, 14:27:15.515
86, -3.69, -58.80, 0.00, 9.65, 0.000, 0.000, 0.000, 14:27:15.515
87, 0.22, -51.61, 0.00, 6.48, 0.000, 0.000, 0.000, 14:27:15.530
88, -4.78, -53.42, 0.00, 7.94, 0.000, 0.000, 0.000, 14:27:15.530
89, -10.93, -58.46, 0.00, 7.32, 0.000, 0.000, 0.000, 14:27:15.530
90, -2.51, -57.22, 0.00, 4.92, 0.000, 0.000, 0.000, 14:27:15.530
91, 2.34, -55.51, 0.00, 11.14, 0.000, 0.000, 0.000, 14:27:15.545
92, -2.69, -57.45, 0.00, 12.44, 0.000, 0.000, 0.000, 14:27:15.545
93, -10.60, -58.79, 0.00, 7.21, 0.000, 0.000, 0.000, 14:27:15.560
94, -3.26, -60.15, 0.00, 9.98, 0.000, 0.000, 0.000, 14:27:15.560
95, 15.35, -55.37, 0.00, 7.60, 0.000, 0.000, 0.000, 14:27:15.560
96, -8.06, -56.40, 0.00, 8.78, 0.000, 0.000, 0.000, 14:27:15.560
97, -12.37, -57.20, 0.00, 6.84, 0.000, 0.000, 0.000, 14:27:15.575
98, 2.91, -61.35, 0.00, 7.36, 0.000, 0.000, 0.000, 14:27:15.575
99, 0.71, -57.37, 0.00, 8.17, 0.000, 0.000, 0.000, 14:27:15.606
100, -5.09, -56.99, 0.00, 9.50, 0.000, 0.000, 0.000, 14:27:15.606
101, -8.17, -57.59, 0.00, 9.12, 0.000, 0.000, 0.000, 14:27:15.606
102, -4.80, -54.87, 0.00, 4.58, 0.000, 0.000, 0.000, 14:27:15.606
103, 0.28, -54.74, 0.00, 8.10, 0.000, 0.000, 0.000, 14:27:15.606
104, -5.35, -56.87, 0.00, 6.78, 0.000, 0.000, 0.000, 14:27:15.606
105, -17.51, -59.61, 0.00, 7.46, 0.000, 0.000, 0.000, 14:27:15.614
106, -4.22, -57.14, 0.00, 6.71, 0.000, 0.000, 0.000, 14:27:15.614
107, 19.24, -50.81, 0.00, 8.39, 0.000, 0.000, 0.000, 14:27:15.621
108, -6.50, -49.81, 0.00, 8.10, 0.000, 0.000, 0.000, 14:27:15.621
109, -19.45, -56.76, 0.00, 11.25, 0.000, 0.000, 0.000, 14:27:15.636
110, -6.63, -56.13, 0.00, 9.51, 0.000, 0.000, 0.000, 14:27:15.636
111, -0.30, -56.14, 0.00, 8.99, 0.000, 0.000, 0.000, 14:27:15.650
112, -5.49, -58.20, 0.00, 9.43, 0.000, 0.000, 0.000, 14:27:15.650
113, -5.88, -62.76, 0.00, 11.63, 0.000, 0.000, 0.000, 14:27:15.651
114, -4.09, -58.16, 0.00, 8.44, 0.000, 0.000, 0.000, 14:27:15.651
115, -0.81, -52.57, 0.00, 8.17, 0.000, 0.000, 0.000, 14:27:15.666
116, -2.61, -51.80, 0.00, 8.58, 0.000, 0.000, 0.000, 14:27:15.666
117, -16.00, -54.56, 0.00, 5.46, 0.000, 0.000, 0.000, 14:27:15.680
118, -5.38, -54.04, 0.00, 6.05, 0.000, 0.000, 0.000, 14:27:15.680
119, 24.91, -49.60, 0.00, 7.18, 0.000, 0.000, 0.000, 14:27:15.680
120, -10.16, -51.56, 0.00, 6.66, 0.000, 0.000, 0.000, 14:27:15.680
121, -18.39, -54.37, 0.00, 11.75, 0.000, 0.000, 0.000, 14:27:15.696
122, -2.08, -54.85, 0.00, 4.55, 0.000, 0.000, 0.000, 14:27:15.696
123, 0.25, -52.15, 0.00, 5.64, 0.000, 0.000, 0.000, 14:27:15.710
124, -6.32, -51.08, 0.00, 9.95, 0.000, 0.000, 0.000, 14:27:15.710
125, -8.27, -56.51, 0.00, 10.73, 0.000, 0.000, 0.000, 14:27:15.711
126, -3.65, -52.70, 0.00, 9.21, 0.000, 0.000, 0.000, 14:27:15.711
127, -0.65, -47.56, 0.00, 8.30, 0.000, 0.000, 0.000, 14:27:15.725
128, -6.23, -50.40, 0.00, 6.96, 0.000, 0.000, 0.000, 14:27:15.726
129, -9.75, -53.14, 0.00, 7.62, 0.000, 0.000, 0.000, 14:27:15.741
130, -2.22, -51.86, 0.00, 11.59, 0.000, 0.000, 0.000, 14:27:15.741
131, 4.38, -49.19, 0.00, 12.24, 0.000, 0.000, 0.000, 14:27:15.741
132, -4.05, -50.56, 0.00, 10.44, 0.000, 0.000, 0.000, 14:27:15.741
133, -11.53, -58.45, 0.00, 10.37, 0.000, 0.000, 0.000, 14:27:15.756
134, 0.38, -52.54, 0.00, 15.64, 0.000, 0.000, 0.000, 14:27:15.756
135, 1.82, -53.35, 0.00, 7.79, 0.000, 0.000, 0.000, 14:27:15.770
136, -5.82, -54.87, 0.00, 12.28, 0.000, 0.000, 0.000, 14:27:15.770
137, -10.86, -61.77, 0.00, 9.27, 0.000, 0.000, 0.000, 14:27:15.771
138, -1.99, -57.46, 0.00, 11.11, 0.000, 0.000, 0.000, 14:27:15.771
139, 0.34, -52.54, 0.00, 7.66, 0.000, 0.000, 0.000, 14:27:15.786
140, -1.64, -52.21, 0.00, 7.34, 0.000, 0.000, 0.000, 14:27:15.786
141, -7.30, -55.44, 0.00, 6.45, 0.000, 0.000, 0.000, 14:27:15.801
142, -2.50, -56.48, 0.00, 11.35, 0.000, 0.000, 0.000, 14:27:15.801
143, 24.36, -51.25, 0.00, 9.12, 0.000, 0.000, 0.000, 14:27:15.801
144, -1.11, -52.11, 0.00, 9.79, 0.000, 0.000, 0.000, 14:27:15.801
145, -10.31, -57.99, 0.00, 8.73, 0.000, 0.000, 0.000, 14:27:15.816
146, 0.26, -57.88, 0.00, 9.22, 0.000, 0.000, 0.000, 14:27:15.816
147, -0.30, -52.78, 0.00, 8.05, 0.000, 0.000, 0.000, 14:27:15.831
148, 0.31, -53.57, 0.00, 9.02, 0.000, 0.000, 0.000, 14:27:15.831
149, -11.38, -58.52, 0.00, 8.89, 0.000, 0.000, 0.000, 14:27:15.831
150, -5.91, -57.49, 0.00, 6.95, 0.000, 0.000, 0.000, 14:27:15.831
151, 2.29, -52.92, 0.00, 7.39, 0.000, 0.000, 0.000, 14:27:15.846
152, -0.03, -50.68, 0.00, 8.53, 0.000, 0.000, 0.000, 14:27:15.846
153, -13.44, -55.29, 0.00, 9.54, 0.000, 0.000, 0.000, 14:27:15.860
154, -6.09, -59.21, 0.00, 6.84, 0.000, 0.000, 0.000, 14:27:15.861
155, 8.49, -50.64, 0.00, 6.21, 0.000, 0.000, 0.000, 14:27:15.861
156, -9.44, -52.04, 0.00, 4.43, 0.000, 0.000, 0.000, 14:27:15.861
157, -11.29, -57.73, 0.00, 9.50, 0.000, 0.000, 0.000, 14:27:15.876
158, -5.74, -58.92, 0.00, 6.62, 0.000, 0.000, 0.000, 14:27:15.876
159, 1.71, -48.19, 0.00, 6.49, 0.000, 0.000, 0.000, 14:27:15.890
160, -3.21, -50.05, 0.00, 6.88, 0.000, 0.000, 0.000, 14:27:15.890
161, -8.77, -55.56, 0.00, 9.94, 0.000, 0.000, 0.000, 14:27:15.890
162, -1.46, -54.71, 0.00, 8.56, 0.000, 0.000, 0.000, 14:27:15.890
163, 0.04, -56.45, 0.00, 7.53, 0.000, 0.000, 0.000, 14:27:15.906
164, -4.32, -51.74, 0.00, 10.54, 0.000, 0.000, 0.000, 14:27:15.906
165, -14.03, -57.19, 0.00, 6.75, 0.000, 0.000, 0.000, 14:27:15.920
166, -3.21, -58.24, 0.00, 8.38, 0.000, 0.000, 0.000, 14:27:15.920
167, 5.22, -53.92, 0.00, 7.46, 0.000, 0.000, 0.000, 14:27:15.920
168, -6.03, -53.51, 0.00, 6.78, 0.000, 0.000, 0.000, 14:27:15.920
169, -17.29, -59.13, 0.00, 8.54, 0.000, 0.000, 0.000, 14:27:15.935
170, -4.92, -54.64, 0.00, 7.68, 0.000, 0.000, 0.000, 14:27:15.936
171, -0.30, -53.62, 0.00, 10.96, 0.000, 0.000, 0.000, 14:27:15.950
172, -1.39, -54.06, 0.00, 10.12, 0.000, 0.000, 0.000, 14:27:15.951
173, -13.12, -53.82, 0.00, 9.87, 0.000, 0.000, 0.000, 14:27:15.951
174, -7.13, -51.81, 0.00, 6.96, 0.000, 0.000, 0.000, 14:27:15.951
175, -0.33, -49.00, 0.00, 5.97, 0.000, 0.000, 0.000, 14:27:15.972
176, -3.08, -50.98, 0.00, 11.50, 0.000, 0.000, 0.000, 14:27:15.972
177, -13.14, -52.91, 0.00, 7.37, 0.000, 0.000, 0.000, 14:27:15.980
178, -2.20, -53.22, 0.00, 12.30, 0.000, 0.000, 0.000, 14:27:15.980
179, 15.24, -48.44, 0.00, 8.11, 0.000, 0.000, 0.000, 14:27:15.980
180, -5.61, -49.15, 0.00, 8.01, 0.000, 0.000, 0.000, 14:27:15.980
181, -15.30, -52.85, 0.00, 10.96, 0.000, 0.000, 0.000, 14:27:15.995
182, -6.31, -52.85, 0.00, 5.38, 0.000, 0.000, 0.000, 14:27:15.996
183, 1.62, -47.64, 0.00, 5.92, 0.000, 0.000, 0.000, 14:27:16.011
184, -7.27, -46.77, 0.00, 10.03, 0.000, 0.000, 0.000, 14:27:16.011
185, -10.22, -50.48, 0.00, 8.19, 0.000, 0.000, 0.000, 14:27:16.011
186, -8.06, -54.46, 0.00, 9.84, 0.000, 0.000, 0.000, 14:27:16.011
187, 8.71, -49.84, 0.00, 6.40, 0.000, 0.000, 0.000, 14:27:16.027
188, -3.16, -48.94, 0.00, 10.40, 0.000, 0.000, 0.000, 14:27:16.027
189, -11.13, -54.72, 0.00, 8.66, 0.000, 0.000, 0.000, 14:27:16.040
190, -3.38, -56.88, 0.00, 8.77, 0.000, 0.000, 0.000, 14:27:16.040
191, 4.66, -52.65, 0.00, 4.41, 0.000, 0.000, 0.000, 14:27:16.041
192, -5.24, -54.07, 0.00, 6.92, 0.000, 0.000, 0.000, 14:27:16.041
193, -5.91, -55.72, 0.00, 7.64, 0.000, 0.000, 0.000, 14:27:16.056
194, -2.62, -55.32, 0.00, 5.91, 0.000, 0.000, 0.000, 14:27:16.056
195, -1.71, -53.98, 0.00, 11.07, 0.000, 0.000, 0.000, 14:27:16.071
196, -0.42, -50.77, 0.00, 10.97, 0.000, 0.000, 0.000, 14:27:16.071
197, -8.76, -54.97, 0.00, 10.08, 0.000, 0.000, 0.000, 14:27:16.071
198, -3.52, -54.42, 0.00, 7.15, 0.000, 0.000, 0.000, 14:27:16.071
199, 6.43, -49.58, 0.00, 10.86, 0.000, 0.000, 0.000, 14:27:16.085
200, -3.61, -47.75, 0.00, 8.03, 0.000, 0.000, 0.000, 14:27:16.085
0, -12.85, -53.80, 0.00, 4.13, 0.000, 0.000, 0.000, 14:27:16.085
1, -1.73, -51.95, 0.00, 9.18, 0.000, 0.000, 0.000, 14:27:16.101
2, 10.08, -48.33, 0.00, 10.41, 0.000, 0.000, 0.000, 14:27:16.101
3, -5.17, -48.68, 0.00, 11.70, 0.000, 0.000, 0.000, 14:27:16.115
4, -18.87, -55.66, 0.00, 10.68, 0.000, 0.000, 0.000, 14:27:16.115
5, -3.75, -51.91, 0.00, 7.16, 0.000, 0.000, 0.000, 14:27:16.116
6, 1.05, -47.33, 0.00, 7.91, 0.000, 0.000, 0.000, 14:27:16.116
7, -1.77, -47.17, 0.00, 7.64, 0.000, 0.000, 0.000, 14:27:16.130
8, -8.38, -53.11, 0.00, 8.44, 0.000, 0.000, 0.000, 14:27:16.130
9, -7.33, -51.60, 0.00, 7.43, 0.000, 0.000, 0.000, 14:27:16.144
10, -2.33, -47.19, 0.00, 6.27, 0.000, 0.000, 0.000, 14:27:16.145
11, -0.50, -47.44, 0.00, 8.15, 0.000, 0.000, 0.000, 14:27:16.145
12, -16.46, -53.24, 0.00, 8.21, 0.000, 0.000, 0.000, 14:27:16.145
13, -4.77, -53.77, 0.00, 2.95, 0.000, 0.000, 0.000, 14:27:16.162
14, 10.98, -50.41, 0.00, 5.50, 0.000, 0.000, 0.000, 14:27:16.162
15, -2.47, -52.38, 0.00, 8.96, 0.000, 0.000, 0.000, 14:27:16.175
16, -10.92, -55.69, 0.00, 10.94, 0.000, 0.000, 0.000, 14:27:16.175
17, 0.90, -53.92, 0.00, 6.33, 0.000, 0.000, 0.000, 14:27:16.175
18, -0.97, -52.81, 0.00, 7.64, 0.000, 0.000, 0.000, 14:27:16.176
19, -6.19, -53.98, 0.00, 11.53, 0.000, 0.000, 0.000, 14:27:16.190
20, -15.66, -60.87, 0.00, 6.23, 0.000, 0.000, 0.000, 14:27:16.190
21, -1.82, -53.93, 0.00, 7.47, 0.000, 0.000, 0.000, 14:27:16.205
22, 1.22, -49.04, 0.00, 11.39, 0.000, 0.000, 0.000, 14:27:16.205
23, 7.19, -50.63, 0.00, 11.56, 0.000, 0.000, 0.000, 14:27:16.205
24, -11.10, -56.63, 0.00, 12.41, 0.000, 0.000, 0.000, 14:27:16.205
25, -3.28, -53.42, 0.00, 9.25, 0.000, 0.000, 0.000, 14:27:16.220
26, 10.66, -51.49, 0.00, 12.54, 0.000, 0.000, 0.000, 14:27:16.220
27, -3.04, -47.42, 0.00, 9.57, 0.000, 0.000, 0.000, 14:27:16.236
28, -18.12, -52.25, 0.00, 11.81, 0.000, 0.000, 0.000, 14:27:16.236
29, -2.27, -54.53, 0.00, 9.59, 0.000, 0.000, 0.000, 14:27:16.236
30, -1.21, -50.01, 0.00, 7.57, 0.000, 0.000, 0.000, 14:27:16.236
31, -3.87, -51.50, 0.00, 10.44, 0.000, 0.000, 0.000, 14:27:16.253
32, -10.60, -58.82, 0.00, 5.79, 0.000, 0.000, 0.000, 14:27:16.253
33, 1.28, -58.93, 0.00, 8.12, 0.000, 0.000, 0.000, 14:27:16.267
34, 1.83, -54.65, 0.00, 7.81, 0.000, 0.000, 0.000, 14:27:16.267
35, 3.37, -52.56, 0.00, 7.79, 0.000, 0.000, 0.000, 14:27:16.267
36, -11.41, -57.42, 0.00, 7.35, 0.000, 0.000, 0.000, 14:27:16.267
37, -1.48, -57.06, 0.00, 3.78, 0.000, 0.000, 0.000, 14:27:16.280
38, 21.86, -47.29, 0.00, 7.20, 0.000, 0.000, 0.000, 14:27:16.280
39, -4.39, -51.08, 0.00, 4.78, 0.000, 0.000, 0.000, 14:27:16.296
40, -18.24, -53.89, 0.00, 11.37, 0.000, 0.000, 0.000, 14:27:16.296
41, -3.63, -53.27, 0.00, 8.24, 0.000, 0.000, 0.000, 14:27:16.296
42, 2.26, -49.64, 0.00, 13.36, 0.000, 0.000, 0.000, 14:27:16.296
43, -2.88, -48.02, 0.00, 7.86, 0.000, 0.000, 0.000, 14:27:16.310
44, -16.10, -47.98, 0.00, 9.66, 0.000, 0.000, 0.000, 14:27:16.310
45, -9.10, -50.20, 0.00, 12.33, 0.000, 0.000, 0.000, 14:27:16.325
46, 1.84, -47.01, 0.00, 12.41, 0.000, 0.000, 0.000, 14:27:16.325
47, 0.38, -48.04, 0.00, 11.21, 0.000, 0.000, 0.000, 14:27:16.326
48, -15.15, -51.52, 0.00, 12.03, 0.000, 0.000, 0.000, 14:27:16.326
49, -5.01, -52.65, 0.00, 7.20, 0.000, 0.000, 0.000, 14:27:16.341
50, 11.85, -43.67, 0.00, 8.03, 0.000, 0.000, 0.000, 14:27:16.341
51, -2.14, -45.96, 0.00, 8.18, 0.000, 0.000, 0.000, 14:27:16.355
52, -17.56, -50.56, 0.00, 10.17, 0.000, 0.000, 0.000, 14:27:16.355
53, -4.15, -47.85, 0.00, 12.28, 0.000, 0.000, 0.000, 14:27:16.355
54, 0.83, -45.60, 0.00, 7.92, 0.000, 0.000, 0.000, 14:27:16.355
55, -5.38, -45.24, 0.00, 11.92, 0.000, 0.000, 0.000, 14:27:16.370
56, -11.93, -48.36, 0.00, 6.43, 0.000, 0.000, 0.000, 14:27:16.370
57, -7.83, -48.49, 0.00, 6.99, 0.000, 0.000, 0.000, 14:27:16.386
58, 8.00, -45.80, 0.00, 7.70, 0.000, 0.000, 0.000, 14:27:16.386
59, -4.85, -48.29, 0.00, 12.08, 0.000, 0.000, 0.000, 14:27:16.386
60, -13.59, -50.93, 0.00, 8.75, 0.000, 0.000, 0.000, 14:27:16.386
61, -4.12, -51.75, 0.00, 6.03, 0.000, 0.000, 0.000, 14:27:16.401
62, 8.70, -46.90, 0.00, 8.37, 0.000, 0.000, 0.000, 14:27:16.401
63, -7.95, -46.42, 0.00, 8.30, 0.000, 0.000, 0.000, 14:27:16.415
64, -11.92, -53.02, 0.00, 9.40, 0.000, 0.000, 0.000, 14:27:16.415
65, -2.31, -53.29, 0.00, 11.96, 0.000, 0.000, 0.000, 14:27:16.416
66, -2.17, -51.72, 0.00, 11.08, 0.000, 0.000, 0.000, 14:27:16.416
67, -4.90, -48.85, 0.00, 9.30, 0.000, 0.000, 0.000, 14:27:16.431
68, -9.37, -53.19, 0.00, 10.69, 0.000, 0.000, 0.000, 14:27:16.431
69, -5.26, -52.45, 0.00, 6.80, 0.000, 0.000, 0.000, 14:27:16.448
70, 1.94, -49.48, 0.00, 10.38, 0.000, 0.000, 0.000, 14:27:16.448
71, -0.70, -51.66, 0.00, 12.06, 0.000, 0.000, 0.000, 14:27:16.449
72, -14.77, -54.27, 0.00, 8.47, 0.000, 0.000, 0.000, 14:27:16.449
73, -4.83, -49.87, 0.00, 6.29, 0.000, 0.000, 0.000, 14:27:16.461
74, 16.06, -46.82, 0.00, 5.53, 0.000, 0.000, 0.000, 14:27:16.461
75, -2.87, -52.60, 0.00, 4.09, 0.000, 0.000, 0.000, 14:27:16.476
76, -12.01, -56.20, 0.00, 7.83, 0.000, 0.000, 0.000, 14:27:16.476
77, -1.21, -52.80, 0.00, 6.76, 0.000, 0.000, 0.000, 14:27:16.478
78, 0.28, -49.68, 0.00, 10.72, 0.000, 0.000, 0.000, 14:27:16.478
79, -5.06, -50.32, 0.00, 6.56, 0.000, 0.000, 0.000, 14:27:16.491
80, -8.57, -53.87, 0.00, 8.20, 0.000, 0.000, 0.000, 14:27:16.491
81, -3.59, -54.27, 0.00, 8.95, 0.000, 0.000, 0.000, 14:27:16.505
82, -0.33, -52.05, 0.00, 12.71, 0.000, 0.000, 0.000, 14:27:16.505
83, 4.53, -54.67, 0.00, 9.94, 0.000, 0.000, 0.000, 14:27:16.505
84, -9.38, -50.72, 0.00, 10.86, 0.000, 0.000, 0.000, 14:27:16.506
85, -3.67, -55.49, 0.00, 8.72, 0.000, 0.000, 0.000, 14:27:16.520
86, 11.59, -47.50, 0.00, 11.90, 0.000, 0.000, 0.000, 14:27:16.520
87, -10.77, -49.41, 0.00, 10.35, 0.000, 0.000, 0.000, 14:27:16.536
88, -8.52, -53.30, 0.00, 11.03, 0.000, 0.000, 0.000, 14:27:16.536
89, -0.19, -47.04, 0.00, 8.38, 0.000, 0.000, 0.000, 14:27:16.536
90, 6.93, -46.82, 0.00, 5.08, 0.000, 0.000, 0.000, 14:27:16.536
91, -6.59, -45.53, 0.00, 9.61, 0.000, 0.000, 0.000, 14:27:16.550
92, -10.07, -52.34, 0.00, 7.78, 0.000, 0.000, 0.000, 14:27:16.550
93, -2.72, -52.26, 0.00, 5.60, 0.000, 0.000, 0.000, 14:27:16.565
94, 15.14, -44.75, 0.00, 6.92, 0.000, 0.000, 0.000, 14:27:16.565
95, -3.43, -47.29, 0.00, 8.10, 0.000, 0.000, 0.000, 14:27:16.566
96, -12.26, -49.61, 0.00, 9.15, 0.000, 0.000, 0.000, 14:27:16.566
97, -7.97, -52.42, 0.00, 8.09, 0.000, 0.000, 0.000, 14:27:16.580
98, 2.96, -48.50, 0.00, 11.01, 0.000, 0.000, 0.000, 14:27:16.580
99, -5.02, -49.94, 0.00, 8.49, 0.000, 0.000, 0.000, 14:27:16.596
100, -14.69, -56.76, 0.00, 7.95, 0.000, 0.000, 0.000, 14:27:16.596
101, -4.08, -52.90, 0.00, 8.29, 0.000, 0.000, 0.000, 14:27:16.596
102, -0.18, -48.92, 0.00, 6.41, 0.000, 0.000, 0.000, 14:27:16.596
103, -2.86, -52.87, 0.00, 8.29, 0.000, 0.000, 0.000, 14:27:16.610
104, -13.09, -57.38, 0.00, 8.61, 0.000, 0.000, 0.000, 14:27:16.610
105, -7.45, -56.84, 0.00, 6.96, 0.000, 0.000, 0.000, 14:27:16.625
106, -1.13, -53.46, 0.00, 9.34, 0.000, 0.000, 0.000, 14:27:16.625
107, -2.87, -52.53, 0.00, 12.29, 0.000, 0.000, 0.000, 14:27:16.625
108, -11.14, -59.24, 0.00, 7.79, 0.000, 0.000, 0.000, 14:27:16.626
109, -3.37, -59.02, 0.00, 10.51, 0.000, 0.000, 0.000, 14:27:16.641
110, 16.90, -55.90, 0.00, 6.61, 0.000, 0.000, 0.000, 14:27:16.641
111, -5.97, -53.61, 0.00, 10.95, 0.000, 0.000, 0.000, 14:27:16.656
112, -19.76, -56.53, 0.00, 8.57, 0.000, 0.000, 0.000, 14:27:16.656
113, -3.20, -54.61, 0.00, 9.06, 0.000, 0.000, 0.000, 14:27:16.656
114, -3.15, -48.54, 0.00, 10.47, 0.000, 0.000, 0.000, 14:27:16.656
115, -6.03, -50.62, 0.00, 8.74, 0.000, 0.000, 0.000, 14:27:16.671
116, -11.14, -50.21, 0.00, 11.37, 0.000, 0.000, 0.000, 14:27:16.671
117, -5.25, -51.66, 0.00, 6.00, 0.000, 0.000, 0.000, 14:27:16.686
118, -7.41, -50.52, 0.00, 9.60, 0.000, 0.000, 0.000, 14:27:16.686
119, -6.51, -52.24, 0.00, 9.57, 0.000, 0.000, 0.000, 14:27:16.686
120, -11.24, -50.61, 0.00, 8.00, 0.000, 0.000, 0.000, 14:27:16.686
121, -5.52, -50.15, 0.00, 11.90, 0.000, 0.000, 0.000, 14:27:16.700
122, -0.92, -47.02, 0.00, 6.78, 0.000, 0.000, 0.000, 14:27:16.700
123, -12.88, -44.19, 0.00, 7.84, 0.000, 0.000, 0.000, 14:27:16.715
124, -11.57, -47.57, 0.00, 9.74, 0.000, 0.000, 0.000, 14:27:16.715
125, -1.52, -49.47, 0.00, 10.97, 0.000, 0.000, 0.000, 14:27:16.715
126, -4.80, -50.28, 0.00, 4.47, 0.000, 0.000, 0.000, 14:27:16.716
127, 0.14, -46.77, 0.00, 7.22, 0.000, 0.000, 0.000, 14:27:16.731
128, -7.67, -50.53, 0.00, 10.60, 0.000, 0.000, 0.000, 14:27:16.731
129, 0.52, -53.67, 0.00, 6.33, 0.000, 0.000, 0.000, 14:27:16.745
130, 2.74, -51.56, 0.00, 9.72, 0.000, 0.000, 0.000, 14:27:16.745
131, 1.45, -46.50, 0.00, 10.33, 0.000, 0.000, 0.000, 14:27:16.746
132, -6.57, -50.99, 0.00, 5.68, 0.000, 0.000, 0.000, 14:27:16.746
133, -0.34, -55.49, 0.00, 11.32, 0.000, 0.000, 0.000, 14:27:16.767
134, 6.09, -49.19, 0.00, 4.78, 0.000, 0.000, 0.000, 14:27:16.767
135, -1.94, -51.43, 0.00, 9.77, 0.000, 0.000, 0.000, 14:27:16.775
136, -10.17, -55.23, 0.00, 5.20, 0.000, 0.000, 0.000, 14:27:16.775
137, -2.16, -49.79, 0.00, 10.14, 0.000, 0.000, 0.000, 14:27:16.775
138, 0.95, -47.38, 0.00, 8.53, 0.000, 0.000, 0.000, 14:27:16.776
139, -6.18, -52.64, 0.00, 8.99, 0.000, 0.000, 0.000, 14:27:16.790
140, -12.85, -52.52, 0.00, 10.56, 0.000, 0.000, 0.000, 14:27:16.790
141, -4.63, -50.86, 0.00, 6.42, 0.000, 0.000, 0.000, 14:27:16.805
142, 14.90, -46.83, 0.00, 8.64, 0.000, 0.000, 0.000, 14:27:16.805
143, -0.42, -49.96, 0.00, 8.85, 0.000, 0.000, 0.000, 14:27:16.805
144, -11.33, -51.55, 0.00, 9.46, 0.000, 0.000, 0.000, 14:27:16.805
145, -2.66, -50.57, 0.00, 5.55, 0.000, 0.000, 0.000, 14:27:16.821
146, 7.90, -46.08, 0.00, 8.08, 0.000, 0.000, 0.000, 14:27:16.822
147, -6.82, -47.60, 0.00, 7.62, 0.000, 0.000, 0.000, 14:27:16.836
148, -11.43, -47.49, 0.00, 7.61, 0.000, 0.000, 0.000, 14:27:16.836
149, -1.32, -48.73, 0.00, 7.44, 0.000, 0.000, 0.000, 14:27:16.836
150, 1.33, -45.84, 0.00, 11.69, 0.000, 0.000, 0.000, 14:27:16.836
151, -10.26, -46.83, 0.00, 10.63, 0.000, 0.000, 0.000, 14:27:16.850
152, -6.90, -49.63, 0.00, 10.51, 0.000, 0.000, 0.000, 14:27:16.850
153, -0.91, -49.64, 0.00, 9.09, 0.000, 0.000, 0.000, 14:27:16.865
154, 2.58, -47.55, 0.00, 8.79, 0.000, 0.000, 0.000, 14:27:16.865
155, 2.52, -45.15, 0.00, 7.53, 0.000, 0.000, 0.000, 14:27:16.866
156, 0.25, -49.15, 0.00, 10.24, 0.000, 0.000, 0.000, 14:27:16.866
157, -2.16, -48.17, 0.00, 6.19, 0.000, 0.000, 0.000, 14:27:16.880
158, 9.87, -45.29, 0.00, 9.83, 0.000, 0.000, 0.000, 14:27:16.880
159, -8.90, -48.73, 0.00, 8.25, 0.000, 0.000, 0.000, 14:27:16.895
160, -10.42, -50.41, 0.00, 7.80, 0.000, 0.000, 0.000, 14:27:16.895
161, -2.26, -47.50, 0.00, 11.30, 0.000, 0.000, 0.000, 14:27:16.895
162, -1.24, -48.33, 0.00, 9.48, 0.000, 0.000, 0.000, 14:27:16.895
163, -1.55, -46.64, 0.00, 7.30, 0.000, 0.000, 0.000, 14:27:16.912
164, -6.62, -46.69, 0.00, 11.27, 0.000, 0.000, 0.000, 14:27:16.912
165, -2.49, -48.10, 0.00, 8.17, 0.000, 0.000, 0.000, 14:27:16.927
166, 14.34, -49.19, 0.00, 8.34, 0.000, 0.000, 0.000, 14:27:16.927
167, 7.65, -47.98, 0.00, 4.62, 0.000, 0.000, 0.000, 14:27:16.927
168, -6.78, -50.45, 0.00, 7.35, 0.000, 0.000, 0.000, 14:27:16.927
169, 0.70, -52.15, 0.00, 8.48, 0.000, 0.000, 0.000, 14:27:16.941
170, 4.54, -47.22, 0.00, 7.08, 0.000, 0.000, 0.000, 14:27:16.941
171, -3.93, -47.40, 0.00, 6.09, 0.000, 0.000, 0.000, 14:27:16.956
172, -12.66, -48.83, 0.00, 8.12, 0.000, 0.000, 0.000, 14:27:16.956
173, 2.06, -44.44, 0.00, 12.46, 0.000, 0.000, 0.000, 14:27:16.956
174, -2.03, -46.68, 0.00, 9.18, 0.000, 0.000, 0.000, 14:27:16.956
175, -2.31, -43.04, 0.00, 9.52, 0.000, 0.000, 0.000, 14:27:16.971
176, -11.42, -47.70, 0.00, 9.01, 0.000, 0.000, 0.000, 14:27:16.971
177, -9.74, -45.02, 0.00, 9.82, 0.000, 0.000, 0.000, 14:27:16.985
178, -2.05, -39.98, 0.00, 11.10, 0.000, 0.000, 0.000, 14:27:16.985
179, 2.62, -41.21, 0.00, 7.04, 0.000, 0.000, 0.000, 14:27:16.986
180, -12.93, -43.35, 0.00, 5.73, 0.000, 0.000, 0.000, 14:27:16.986
181, -8.37, -42.61, 0.00, 8.61, 0.000, 0.000, 0.000, 14:27:17.000
182, 19.98, -36.17, 0.00, 7.62, 0.000, 0.000, 0.000, 14:27:17.000
183, 0.38, -40.71, 0.00, 7.15, 0.000, 0.000, 0.000, 14:27:17.015
184, -18.38, -45.19, 0.00, 9.04, 0.000, 0.000, 0.000, 14:27:17.015
185, -3.64, -41.81, 0.00, 8.08, 0.000, 0.000, 0.000, 14:27:17.016
186, 1.39, -39.28, 0.00, 11.13, 0.000, 0.000, 0.000, 14:27:17.016
187, -1.57, -37.46, 0.00, 12.48, 0.000, 0.000, 0.000, 14:27:17.037
188, -7.78, -40.94, 0.00, 9.48, 0.000, 0.000, 0.000, 14:27:17.037
189, -4.87, -46.54, 0.00, 9.13, 0.000, 0.000, 0.000, 14:27:17.047
190, 9.07, -43.68, 0.00, 9.27, 0.000, 0.000, 0.000, 14:27:17.047
191, 4.01, -41.48, 0.00, 10.30, 0.000, 0.000, 0.000, 14:27:17.047
192, -17.14, -47.51, 0.00, 7.52, 0.000, 0.000, 0.000, 14:27:17.047
193, -5.33, -46.87, 0.00, 8.31, 0.000, 0.000, 0.000, 14:27:17.061
194, 24.54, -40.13, 0.00, 8.77, 0.000, 0.000, 0.000, 14:27:17.061
195, -2.57, -38.27, 0.00, 6.34, 0.000, 0.000, 0.000, 14:27:17.076
196, -12.79, -46.46, 0.00, 8.31, 0.000, 0.000, 0.000, 14:27:17.076
197, -2.58, -46.76, 0.00, 9.10, 0.000, 0.000, 0.000, 14:27:17.076
198, 2.71, -41.85, 0.00, 9.09, 0.000, 0.000, 0.000, 14:27:17.076
199, -0.84, -41.28, 0.00, 8.86, 0.000, 0.000, 0.000, 14:27:17.092
200, -2.99, -43.08, 0.00, 6.21, 0.000, 0.000, 0.000, 14:27:17.092
0, 2.15, -48.68, 0.00, 3.76, 0.000, 0.000, 0.000, 14:27:17.092
1, 4.10, -46.27, 0.00, 12.22, 0.000, 0.000, 0.000, 14:27:17.106
2, 9.56, -42.16, 0.00, 11.60, 0.000, 0.000, 0.000, 14:27:17.106
3, -5.32, -49.04, 0.00, 8.21, 0.000, 0.000, 0.000, 14:27:17.120
4, -1.93, -49.02, 0.00, 8.64, 0.000, 0.000, 0.000, 14:27:17.120
5, 13.42, -44.87, 0.00, 6.71, 0.000, 0.000, 0.000, 14:27:17.120
6, 0.72, -46.24, 0.00, 8.43, 0.000, 0.000, 0.000, 14:27:17.121
7, -7.70, -49.27, 0.00, 11.78, 0.000, 0.000, 0.000, 14:27:17.135
8, 2.12, -50.80, 0.00, 7.71, 0.000, 0.000, 0.000, 14:27:17.136
9, 0.40, -47.63, 0.00, 10.32, 0.000, 0.000, 0.000, 14:27:17.150
10, -2.91, -46.40, 0.00, 7.37, 0.000, 0.000, 0.000, 14:27:17.150
11, 0.06, -48.35, 0.00, 7.56, 0.000, 0.000, 0.000, 14:27:17.151
12, -1.72, -49.36, 0.00, 13.20, 0.000, 0.000, 0.000, 14:27:17.151
13, 2.46, -45.12, 0.00, 5.42, 0.000, 0.000, 0.000, 14:27:17.166
14, 5.12, -43.41, 0.00, 3.30, 0.000, 0.000, 0.000, 14:27:17.166
15, -10.62, -47.36, 0.00, 9.98, 0.000, 0.000, 0.000, 14:27:17.180
16, -13.58, -47.48, 0.00, 8.33, 0.000, 0.000, 0.000, 14:27:17.180
17, 11.57, -43.72, 0.00, 8.02, 0.000, 0.000, 0.000, 14:27:17.181
18, -4.21, -42.98, 0.00, 10.21, 0.000, 0.000, 0.000, 14:27:17.181
19, -14.05, -48.45, 0.00, 9.02, 0.000, 0.000, 0.000, 14:27:17.195
20, 2.11, -47.72, 0.00, 5.94, 0.000, 0.000, 0.000, 14:27:17.195
21, -1.48, -46.02, 0.00, 8.89, 0.000, 0.000, 0.000, 14:27:17.210
22, -5.48, -44.04, 0.00, 9.39, 0.000, 0.000, 0.000, 14:27:17.211
23, -2.81, -48.42, 0.00, 11.31, 0.000, 0.000, 0.000, 14:27:17.211
24, -8.33, -46.54, 0.00, 6.48, 0.000, 0.000, 0.000, 14:27:17.211
25, -5.16, -43.40, 0.00, 9.84, 0.000, 0.000, 0.000, 14:27:17.225
26, 5.36, -41.90, 0.00, 7.71, 0.000, 0.000, 0.000, 14:27:17.225
27, -12.24, -44.90, 0.00, 7.96, 0.000, 0.000, 0.000, 14:27:17.240
28, -0.79, -43.73, 0.00, 10.45, 0.000, 0.000, 0.000, 14:27:17.240
29, 21.93, -42.60, 0.00, 8.47, 0.000, 0.000, 0.000, 14:27:17.241
30, -2.59, -42.62, 0.00, 11.25, 0.000, 0.000, 0.000, 14:27:17.241
31, -18.05, -48.00, 0.00, 6.47, 0.000, 0.000, 0.000, 14:27:17.257
32, -2.28, -46.49, 0.00, 9.29, 0.000, 0.000, 0.000, 14:27:17.257
33, -2.49, -41.64, 0.00, 8.55, 0.000, 0.000, 0.000, 14:27:17.271
34, -2.12, -41.81, 0.00, 11.11, 0.000, 0.000, 0.000, 14:27:17.271
35, -8.91, -44.35, 0.00, 10.55, 0.000, 0.000, 0.000, 14:27:17.271
36, -3.33, -43.76, 0.00, 7.62, 0.000, 0.000, 0.000, 14:27:17.271
37, 4.32, -42.51, 0.00, 8.00, 0.000, 0.000, 0.000, 14:27:17.286
38, 14.15, -37.63, 0.00, 11.35, 0.000, 0.000, 0.000, 14:27:17.286
39, -12.61, -43.15, 0.00, 10.08, 0.000, 0.000, 0.000, 14:27:17.301
40, -7.53, -43.32, 0.00, 6.70, 0.000, 0.000, 0.000, 14:27:17.301
41, 13.62, -35.55, 0.00, 12.72, 0.000, 0.000, 0.000, 14:27:17.301
42, -0.11, -37.14, 0.00, 8.47, 0.000, 0.000, 0.000, 14:27:17.301
43, -12.35, -38.06, 0.00, 9.81, 0.000, 0.000, 0.000, 14:27:17.316
44, -4.86, -44.20, 0.00, 9.25, 0.000, 0.000, 0.000, 14:27:17.316
45, -0.30, -38.68, 0.00, 9.88, 0.000, 0.000, 0.000, 14:27:17.331
46, 1.46, -40.09, 0.00, 5.22, 0.000, 0.000, 0.000, 14:27:17.331
47, -7.27, -45.41, 0.00, 8.04, 0.000, 0.000, 0.000, 14:27:17.331
48, -8.20, -43.92, 0.00, 6.74, 0.000, 0.000, 0.000, 14:27:17.331
49, 3.02, -39.85, 0.00, 13.51, 0.000, 0.000, 0.000, 14:27:17.345
50, 12.10, -37.77, 0.00, 7.07, 0.000, 0.000, 0.000, 14:27:17.346
51, -11.04, -42.61, 0.00, 12.73, 0.000, 0.000, 0.000, 14:27:17.361
52, -4.90, -42.14, 0.00, 11.18, 0.000, 0.000, 0.000, 14:27:17.361
53, 15.51, -38.30, 0.00, 7.28, 0.000, 0.000, 0.000, 14:27:17.361
54, -1.09, -36.35, 0.00, 7.42, 0.000, 0.000, 0.000, 14:27:17.361
55, -8.19, -43.14, 0.00, 9.42, 0.000, 0.000, 0.000, 14:27:17.376
56, -2.63, -41.97, 0.00, 9.99, 0.000, 0.000, 0.000, 14:27:17.376
57, 0.49, -40.95, 0.00, 5.63, 0.000, 0.000, 0.000, 14:27:17.390
58, -4.41, -36.20, 0.00, 9.35, 0.000, 0.000, 0.000, 14:27:17.390
59, -3.80, -41.57, 0.00, 8.81, 0.000, 0.000, 0.000, 14:27:17.390
60, -2.70, -48.40, 0.00, 11.31, 0.000, 0.000, 0.000, 14:27:17.390
61, 1.67, -45.89, 0.00, 3.33, 0.000, 0.000, 0.000, 14:27:17.405
62, 18.79, -41.78, 0.00, 6.19, 0.000, 0.000, 0.000, 14:27:17.405
63, -7.84, -46.41, 0.00, 11.35, 0.000, 0.000, 0.000, 14:27:17.420
64, -4.40, -47.10, 0.00, 7.33, 0.000, 0.000, 0.000, 14:27:17.421
65, 17.90, -39.01, 0.00, 9.68, 0.000, 0.000, 0.000, 14:27:17.421
66, -2.32, -39.92, 0.00, 13.03, 0.000, 0.000, 0.000, 14:27:17.421
67, -16.47, -44.31, 0.00, 9.93, 0.000, 0.000, 0.000, 14:27:17.436
68, -3.61, -44.18, 0.00, 12.40, 0.000, 0.000, 0.000, 14:27:17.436
69, 0.10, -46.58, 0.00, 6.60, 0.000, 0.000, 0.000, 14:27:17.450
70, -3.72, -43.81, 0.00, 6.51, 0.000, 0.000, 0.000, 14:27:17.450
71, -8.55, -47.92, 0.00, 6.55, 0.000, 0.000, 0.000, 14:27:17.451
72, -9.62, -46.60, 0.00, 7.55, 0.000, 0.000, 0.000, 14:27:17.451
73, -0.34, -40.76, 0.00, 9.91, 0.000, 0.000, 0.000, 14:27:17.468
74, 2.92, -43.18, 0.00, 8.77, 0.000, 0.000, 0.000, 14:27:17.468
75, -12.63, -44.59, 0.00, 9.48, 0.000, 0.000, 0.000, 14:27:17.481
76, -3.31, -47.74, 0.00, 12.21, 0.000, 0.000, 0.000, 14:27:17.481
77, 20.72, -41.01, 0.00, 9.51, 0.000, 0.000, 0.000, 14:27:17.487
78, -1.27, -44.07, 0.00, 10.79, 0.000, 0.000, 0.000, 14:27:17.487
79, -6.41, -48.86, 0.00, 9.05, 0.000, 0.000, 0.000, 14:27:17.496
80, 2.60, -45.00, 0.00, 10.26, 0.000, 0.000, 0.000, 14:27:17.496
81, -1.84, -46.56, 0.00, 7.66, 0.000, 0.000, 0.000, 14:27:17.510
82, -2.44, -42.64, 0.00, 8.07, 0.000, 0.000, 0.000, 14:27:17.510
83, 0.15, -45.97, 0.00, 10.25, 0.000, 0.000, 0.000, 14:27:17.510
84, -1.75, -47.33, 0.00, 5.33, 0.000, 0.000, 0.000, 14:27:17.511
85, -2.12, -47.92, 0.00, 12.44, 0.000, 0.000, 0.000, 14:27:17.525
86, 1.97, -45.45, 0.00, 8.13, 0.000, 0.000, 0.000, 14:27:17.525
87, -7.42, -47.07, 0.00, 7.24, 0.000, 0.000, 0.000, 14:27:17.541
88, -0.82, -48.09, 0.00, 10.08, 0.000, 0.000, 0.000, 14:27:17.541
89, 16.39, -45.43, 0.00, 10.89, 0.000, 0.000, 0.000, 14:27:17.541
90, -2.37, -46.03, 0.00, 9.69, 0.000, 0.000, 0.000, 14:27:17.541
91, -13.23, -52.55, 0.00, 7.43, 0.000, 0.000, 0.000, 14:27:17.555
92, -0.49, -50.54, 0.00, 9.30, 0.000, 0.000, 0.000, 14:27:17.555
93, -3.43, -46.19, 0.00, 8.16, 0.000, 0.000, 0.000, 14:27:17.570
94, -3.99, -46.87, 0.00, 3.89, 0.000, 0.000, 0.000, 14:27:17.571
95, -11.49, -50.77, 0.00, 6.69, 0.000, 0.000, 0.000, 14:27:17.571
96, -1.92, -46.49, 0.00, 7.23, 0.000, 0.000, 0.000, 14:27:17.571
97, -2.77, -42.33, 0.00, 12.49, 0.000, 0.000, 0.000, 14:27:17.585
98, 6.26, -41.81, 0.00, 10.06, 0.000, 0.000, 0.000, 14:27:17.585
99, -10.81, -45.18, 0.00, 9.26, 0.000, 0.000, 0.000, 14:27:17.601
100, -9.31, -48.11, 0.00, 6.79, 0.000, 0.000, 0.000, 14:27:17.601
101, 10.87, -44.54, 0.00, 6.21, 0.000, 0.000, 0.000, 14:27:17.601
102, -3.56, -44.39, 0.00, 10.54, 0.000, 0.000, 0.000, 14:27:17.601
103, -10.62, -49.42, 0.00, 9.01, 0.000, 0.000, 0.000, 14:27:17.616
104, 1.88, -51.23, 0.00, 13.85, 0.000, 0.000, 0.000, 14:27:17.616
105, 5.69, -45.57, 0.00, 8.71, 0.000, 0.000, 0.000, 14:27:17.630
106, -3.32, -46.62, 0.00, 10.63, 0.000, 0.000, 0.000, 14:27:17.630
107, -2.98, -47.22, 0.00, 9.33, 0.000, 0.000, 0.000, 14:27:17.630
108, -0.88, -52.30, 0.00, 8.40, 0.000, 0.000, 0.000, 14:27:17.630
109, 1.52, -45.16, 0.00, 11.40, 0.000, 0.000, 0.000, 14:27:17.646
110, 1.88, -45.59, 0.00, 6.24, 0.000, 0.000, 0.000, 14:27:17.646
111, -4.77, -44.19, 0.00, 2.85, 0.000, 0.000, 0.000, 14:27:17.660
112, -3.74, -44.99, 0.00, 7.41, 0.000, 0.000, 0.000, 14:27:17.660
113, 8.40, -46.00, 0.00, 12.51, 0.000, 0.000, 0.000, 14:27:17.661
114, -2.88, -44.62, 0.00, 6.79, 0.000, 0.000, 0.000, 14:27:17.661
115, -6.41, -47.23, 0.00, 7.88, 0.000, 0.000, 0.000, 14:27:17.675
116, -2.00, -45.12, 0.00, 9.46, 0.000, 0.000, 0.000, 14:27:17.675
117, -4.94, -46.70, 0.00, 11.50, 0.000, 0.000, 0.000, 14:27:17.690
118, -5.50, -41.08, 0.00, 12.01, 0.000, 0.000, 0.000, 14:27:17.690
119, -3.74, -48.08, 0.00, 9.79, 0.000, 0.000, 0.000, 14:27:17.690
120, -1.90, -50.95, 0.00, 7.85, 0.000, 0.000, 0.000, 14:27:17.691
121, -3.53, -49.38, 0.00, 10.45, 0.000, 0.000, 0.000, 14:27:17.705
122, -2.50, -44.33, 0.00, 10.43, 0.000, 0.000, 0.000, 14:27:17.705
123, -11.03, -45.94, 0.00, 9.18, 0.000, 0.000, 0.000, 14:27:17.720
124, 0.07, -49.62, 0.00, 9.77, 0.000, 0.000, 0.000, 14:27:17.720
125, 7.69, -44.18, 0.00, 8.14, 0.000, 0.000, 0.000, 14:27:17.721
126, -3.10, -41.58, 0.00, 8.18, 0.000, 0.000, 0.000, 14:27:17.721
127, -21.24, -48.07, 0.00, 13.15, 0.000, 0.000, 0.000, 14:27:17.735
128, -6.06, -48.91, 0.00, 10.26, 0.000, 0.000, 0.000, 14:27:17.735
129, -3.25, -41.47, 0.00, 4.88, 0.000, 0.000, 0.000, 14:27:17.750
130, -4.86, -40.73, 0.00, 7.26, 0.000, 0.000, 0.000, 14:27:17.750
131, -12.94, -44.79, 0.00, 9.37, 0.000, 0.000, 0.000, 14:27:17.751
132, -5.19, -48.56, 0.00, 11.72, 0.000, 0.000, 0.000, 14:27:17.751
133, -0.06, -44.07, 0.00, 9.14, 0.000, 0.000, 0.000, 14:27:17.765
134, 3.38, -44.57, 0.00, 8.53, 0.000, 0.000, 0.000, 14:27:17.765
135, -5.47, -46.42, 0.00, 9.12, 0.000, 0.000, 0.000, 14:27:17.780
136, 0.78, -48.04, 0.00, 7.41, 0.000, 0.000, 0.000, 14:27:17.780
137, 5.29, -49.26, 0.00, 10.90, 0.000, 0.000, 0.000, 14:27:17.781
138, -7.91, -45.84, 0.00, 8.55, 0.000, 0.000, 0.000, 14:27:17.781
139, -19.02, -51.50, 0.00, 11.30, 0.000, 0.000, 0.000, 14:27:17.795
140, -0.62, -50.30, 0.00, 6.71, 0.000, 0.000, 0.000, 14:27:17.795
141, -3.81, -48.61, 0.00, 11.45, 0.000, 0.000, 0.000, 14:27:17.811
142, -5.71, -46.74, 0.00, 7.49, 0.000, 0.000, 0.000, 14:27:17.811
143, -9.30, -51.25, 0.00, 13.03, 0.000, 0.000, 0.000, 14:27:17.811
144, -3.63, -49.94, 0.00, 7.59, 0.000, 0.000, 0.000, 14:27:17.811
145, -2.56, -49.52, 0.00, 8.83, 0.000, 0.000, 0.000, 14:27:17.825
146, -3.54, -42.27, 0.00, 7.84, 0.000, 0.000, 0.000, 14:27:17.825
147, -21.24, -44.59, 0.00, 8.19, 0.000, 0.000, 0.000, 14:27:17.840
148, -6.28, -49.00, 0.00, 7.82, 0.000, 0.000, 0.000, 14:27:17.840
149, 4.89, -42.27, 0.00, 9.03, 0.000, 0.000, 0.000, 14:27:17.840
150, -4.10, -41.40, 0.00, 6.92, 0.000, 0.000, 0.000, 14:27:17.840
151, -21.58, -46.62, 0.00, 7.47, 0.000, 0.000, 0.000, 14:27:17.861
152, -9.49, -49.07, 0.00, 7.37, 0.000, 0.000, 0.000, 14:27:17.862
153, 6.52, -46.27, 0.00, 5.79, 0.000, 0.000, 0.000, 14:27:17.870
154, 0.86, -47.74, 0.00, 10.14, 0.000, 0.000, 0.000, 14:27:17.870
155, -11.31, -47.21, 0.00, 12.51, 0.000, 0.000, 0.000, 14:27:17.871
156, -6.83, -46.08, 0.00, 8.47, 0.000, 0.000, 0.000, 14:27:17.871
157, -3.25, -43.79, 0.00, 9.40, 0.000, 0.000, 0.000, 14:27:17.887
158, -4.03, -43.42, 0.00, 7.08, 0.000, 0.000, 0.000, 14:27:17.887
159, -20.50, -49.71, 0.00, 9.88, 0.000, 0.000, 0.000, 14:27:17.901
160, -8.70, -47.88, 0.00, 7.92, 0.000, 0.000, 0.000, 14:27:17.901
161, 3.90, -43.12, 0.00, 11.47, 0.000, 0.000, 0.000, 14:27:17.901
162, -3.00, -41.22, 0.00, 10.34, 0.000, 0.000, 0.000, 14:27:17.901
163, -19.84, -44.55, 0.00, 12.96, 0.000, 0.000, 0.000, 14:27:17.915
164, -3.85, -46.57, 0.00, 7.78, 0.000, 0.000, 0.000, 14:27:17.915
165, 3.99, -43.56, 0.00, 5.74, 0.000, 0.000, 0.000, 14:27:17.931
166, -0.98, -43.98, 0.00, 7.73, 0.000, 0.000, 0.000, 14:27:17.931
167, -4.99, -47.38, 0.00, 10.84, 0.000, 0.000, 0.000, 14:27:17.931
168, -6.05, -45.41, 0.00, 14.75, 0.000, 0.000, 0.000, 14:27:17.931
169, -1.25, -45.85, 0.00, 10.92, 0.000, 0.000, 0.000, 14:27:17.945
170, 1.41, -42.40, 0.00, 9.88, 0.000, 0.000, 0.000, 14:27:17.946
171, -10.19, -50.03, 0.00, 9.38, 0.000, 0.000, 0.000, 14:27:17.961
172, -0.15, -46.73, 0.00, 9.82, 0.000, 0.000, 0.000, 14:27:17.961
173, 2.55, -48.02, 0.00, 8.32, 0.000, 0.000, 0.000, 14:27:17.961
174, -5.56, -48.62, 0.00, 6.04, 0.000, 0.000, 0.000, 14:27:17.961
175, -11.39, -48.16, 0.00, 11.88, 0.000, 0.000, 0.000, 14:27:17.976
176, -0.73, -47.72, 0.00, 9.43, 0.000, 0.000, 0.000, 14:27:17.976
177, -3.61, -48.24, 0.00, 10.62, 0.000, 0.000, 0.000, 14:27:17.991
178, -6.60, -46.10, 0.00, 7.78, 0.000, 0.000, 0.000, 14:27:17.991
179, -7.26, -49.32, 0.00, 10.06, 0.000, 0.000, 0.000, 14:27:17.991
180, -7.63, -48.94, 0.00, 9.44, 0.000, 0.000, 0.000, 14:27:17.991
181, -1.02, -46.27, 0.00, 6.37, 0.000, 0.000, 0.000, 14:27:18.005
182, -6.47, -42.81, 0.00, 10.78, 0.000, 0.000, 0.000, 14:27:18.005
183, -18.09, -50.01, 0.00, 7.78, 0.000, 0.000, 0.000, 14:27:18.021
184, -1.48, -46.68, 0.00, 8.19, 0.000, 0.000, 0.000, 14:27:18.021
185, 2.94, -45.92, 0.00, 8.84, 0.000, 0.000, 0.000, 14:27:18.021
186, -9.13, -45.04, 0.00, 8.11, 0.000, 0.000, 0.000, 14:27:18.021
187, -14.45, -49.93, 0.00, 6.99, 0.000, 0.000, 0.000, 14:27:18.035
188, -7.25, -47.93, 0.00, 7.77, 0.000, 0.000, 0.000, 14:27:18.035
189, 2.36, -49.40, 0.00, 4.39, 0.000, 0.000, 0.000, 14:27:18.051
190, -3.51, -46.93, 0.00, 11.17, 0.000, 0.000, 0.000, 14:27:18.051
191, -11.14, -49.67, 0.00, 5.88, 0.000, 0.000, 0.000, 14:27:18.051
192, -4.95, -52.09, 0.00, 9.34, 0.000, 0.000, 0.000, 14:27:18.051
193, 3.24, -48.10, 0.00, 9.83, 0.000, 0.000, 0.000, 14:27:18.066
194, -2.05, -46.39, 0.00, 8.41, 0.000, 0.000, 0.000, 14:27:18.066
195, -7.23, -51.73, 0.00, 12.97, 0.000, 0.000, 0.000, 14:27:18.081
196, -4.08, -50.50, 0.00, 5.99, 0.000, 0.000, 0.000, 14:27:18.081
197, 0.97, -47.32, 0.00, 9.13, 0.000, 0.000, 0.000, 14:27:18.081
198, -11.55, -45.28, 0.00, 9.17, 0.000, 0.000, 0.000, 14:27:18.082
199, -13.97, -45.83, 0.00, 7.65, 0.000, 0.000, 0.000, 14:27:18.095
200, -11.63, -50.60, 0.00, 9.16, 0.000, 0.000, 0.000, 14:27:18.095
0, -5.88, -45.50, 0.00, 6.83, 0.000, 0.000, 0.000, 14:27:18.095
1, -6.74, -47.65, 0.00, 10.62, 0.000, 0.000, 0.000, 14:27:18.110
2, -16.78, -48.62, 0.00, 7.64, 0.000, 0.000, 0.000, 14:27:18.110
3, -5.42, -48.91, 0.00, 9.20, 0.000, 0.000, 0.000, 14:27:18.125
4, -1.25, -45.72, 0.00, 5.80, 0.000, 0.000, 0.000, 14:27:18.126
5, 1.65, -45.85, 0.00, 6.36, 0.000, 0.000, 0.000, 14:27:18.133
6, -16.56, -49.27, 0.00, 7.59, 0.000, 0.000, 0.000, 14:27:18.133
7, -7.30, -49.31, 0.00, 7.00, 0.000, 0.000, 0.000, 14:27:18.140
8, 5.20, -46.60, 0.00, 8.01, 0.000, 0.000, 0.000, 14:27:18.140
9, -7.12, -52.85, 0.00, 3.55, 0.000, 0.000, 0.000, 14:27:18.155
10, -5.47, -51.36, 0.00, 8.06, 0.000, 0.000, 0.000, 14:27:18.155
11, -8.10, -54.05, 0.00, 4.57, 0.000, 0.000, 0.000, 14:27:18.155
12, 0.40, -49.51, 0.00, 9.49, 0.000, 0.000, 0.000, 14:27:18.155
13, -6.76, -49.18, 0.00, 8.32, 0.000, 0.000, 0.000, 14:27:18.170
14, -15.11, -52.71, 0.00, 12.66, 0.000, 0.000, 0.000, 14:27:18.170
15, -8.22, -53.84, 0.00, 11.32, 0.000, 0.000, 0.000, 14:27:18.186
16, 0.74, -47.92, 0.00, 8.04, 0.000, 0.000, 0.000, 14:27:18.186
17, -7.79, -48.93, 0.00, 7.25, 0.000, 0.000, 0.000, 14:27:18.186
18, -21.60, -48.24, 0.00, 7.04, 0.000, 0.000, 0.000, 14:27:18.186
19, -9.67, -49.12, 0.00, 8.56, 0.000, 0.000, 0.000, 14:27:18.201
20, -0.87, -44.97, 0.00, 7.52, 0.000, 0.000, 0.000, 14:27:18.201
21, -5.21, -46.63, 0.00, 9.55, 0.000, 0.000, 0.000, 14:27:18.215
22, -13.01, -45.52, 0.00, 6.60, 0.000, 0.000, 0.000, 14:27:18.215
23, -5.99, -46.69, 0.00, 8.97, 0.000, 0.000, 0.000, 14:27:18.215
24, 2.03, -49.82, 0.00, 7.37, 0.000, 0.000, 0.000, 14:27:18.215
25, -2.29, -45.89, 0.00, 11.22, 0.000, 0.000, 0.000, 14:27:18.230
26, -11.73, -46.93, 0.00, 5.97, 0.000, 0.000, 0.000, 14:27:18.231
27, -9.34, -46.82, 0.00, 5.82, 0.000, 0.000, 0.000, 14:27:18.245
28, -1.26, -44.42, 0.00, 12.79, 0.000, 0.000, 0.000, 14:27:18.245
29, -1.75, -44.66, 0.00, 8.46, 0.000, 0.000, 0.000, 14:27:18.246
30, -19.07, -48.14, 0.00, 10.68, 0.000, 0.000, 0.000, 14:27:18.246
31, -6.31, -52.05, 0.00, 8.85, 0.000, 0.000, 0.000, 14:27:18.260
32, 1.97, -45.20, 0.00, 12.43, 0.000, 0.000, 0.000, 14:27:18.260
33, -6.89, -43.45, 0.00, 11.66, 0.000, 0.000, 0.000, 14:27:18.275
34, -12.02, -47.82, 0.00, 8.14, 0.000, 0.000, 0.000, 14:27:18.275
35, -10.08, -46.88, 0.00, 7.00, 0.000, 0.000, 0.000, 14:27:18.275
36, -2.10, -47.48, 0.00, 9.96, 0.000, 0.000, 0.000, 14:27:18.275
37, -6.64, -48.53, 0.00, 10.74, 0.000, 0.000, 0.000, 14:27:18.290
38, -11.06, -48.81, 0.00, 10.46, 0.000, 0.000, 0.000, 14:27:18.290
39, -2.72, -50.62, 0.00, 8.40, 0.000, 0.000, 0.000, 14:27:18.305
40, 2.58, -49.65, 0.00, 9.66, 0.000, 0.000, 0.000, 14:27:18.305
41, 2.24, -47.35, 0.00, 8.17, 0.000, 0.000, 0.000, 14:27:18.305
42, -7.95, -49.19, 0.00, 11.61, 0.000, 0.000, 0.000, 14:27:18.305
43, -5.57, -49.07, 0.00, 9.39, 0.000, 0.000, 0.000, 14:27:18.321
44, 11.62, -49.90, 0.00, 7.82, 0.000, 0.000, 0.000, 14:27:18.321
45, -7.12, -45.54, 0.00, 9.12, 0.000, 0.000, 0.000, 14:27:18.336
46, -11.22, -48.91, 0.00, 10.94, 0.000, 0.000, 0.000, 14:27:18.336
47, -4.81, -47.33, 0.00, 5.58, 0.000, 0.000, 0.000, 14:27:18.336
48, -3.06, -46.95, 0.00, 8.10, 0.000, 0.000, 0.000, 14:27:18.336
49, -0.63, -48.89, 0.00, 5.73, 0.000, 0.000, 0.000, 14:27:18.351
50, -5.05, -51.70, 0.00, 8.10, 0.000, 0.000, 0.000, 14:27:18.351
51, -8.27, -55.50, 0.00, 11.21, 0.000, 0.000, 0.000, 14:27:18.366
52, 1.23, -51.23, 0.00, 4.40, 0.000, 0.000, 0.000, 14:27:18.366
53, 1.39, -47.72, 0.00, 8.74, 0.000, 0.000, 0.000, 14:27:18.367
54, -11.02, -49.89, 0.00, 7.80, 0.000, 0.000, 0.000, 14:27:18.367
55, -8.32, -49.78, 0.00, 8.51, 0.000, 0.000, 0.000, 14:27:18.381
56, 0.27, -46.89, 0.00, 9.69, 0.000, 0.000, 0.000, 14:27:18.381
57, -3.49, -48.01, 0.00, 9.23, 0.000, 0.000, 0.000, 14:27:18.395
58, -14.19, -48.94, 0.00, 10.59, 0.000, 0.000, 0.000, 14:27:18.395
59, -9.17, -49.00, 0.00, 4.32, 0.000, 0.000, 0.000, 14:27:18.396
60, -1.33, -47.10, 0.00, 8.87, 0.000, 0.000, 0.000, 14:27:18.396
61, -9.79, -47.61, 0.00, 9.60, 0.000, 0.000, 0.000, 14:27:18.410
62, -16.72, -53.31, 0.00, 8.35, 0.000, 0.000, 0.000, 14:27:18.410
63, -8.81, -51.89, 0.00, 9.67, 0.000, 0.000, 0.000, 14:27:18.425
64, -3.06, -49.19, 0.00, 8.95, 0.000, 0.000, 0.000, 14:27:18.425
65, -1.16, -45.02, 0.00, 8.63, 0.000, 0.000, 0.000, 14:27:18.426
66, -13.16, -49.42, 0.00, 10.05, 0.000, 0.000, 0.000, 14:27:18.426
67, -10.79, -51.07, 0.00, 7.31, 0.000, 0.000, 0.000, 14:27:18.440
68, -2.28, -47.99, 0.00, 7.97, 0.000, 0.000, 0.000, 14:27:18.441
69, -13.03, -48.47, 0.00, 10.05, 0.000, 0.000, 0.000, 14:27:18.455
70, -8.98, -47.85, 0.00, 11.02, 0.000, 0.000, 0.000, 14:27:18.455
71, -6.41, -50.27, 0.00, 8.87, 0.000, 0.000, 0.000, 14:27:18.455
72, -0.07, -48.71, 0.00, 8.37, 0.000, 0.000, 0.000, 14:27:18.455
73, -4.70, -48.24, 0.00, 13.18, 0.000, 0.000, 0.000, 14:27:18.470
74, -16.90, -50.51, 0.00, 7.16, 0.000, 0.000, 0.000, 14:27:18.471
75, -1.29, -49.91, 0.00, 8.00, 0.000, 0.000, 0.000, 14:27:18.485
76, -1.04, -46.30, 0.00, 4.75, 0.000, 0.000, 0.000, 14:27:18.485
77, -5.25, -45.65, 0.00, 6.06, 0.000, 0.000, 0.000, 14:27:18.485
78, -13.85, -45.45, 0.00, 9.77, 0.000, 0.000, 0.000, 14:27:18.485
79, -4.44, -52.25, 0.00, 14.68, 0.000, 0.000, 0.000, 14:27:18.507
80, -3.49, -50.77, 0.00, 12.03, 0.000, 0.000, 0.000, 14:27:18.507
81, -7.09, -48.22, 0.00, 10.87, 0.000, 0.000, 0.000, 14:27:18.515
82, -13.21, -51.56, 0.00, 7.74, 0.000, 0.000, 0.000, 14:27:18.515
83, -6.33, -49.83, 0.00, 8.52, 0.000, 0.000, 0.000, 14:27:18.515
84, -0.22, -46.35, 0.00, 9.98, 0.000, 0.000, 0.000, 14:27:18.515
85, -4.47, -46.16, 0.00, 11.54, 0.000, 0.000, 0.000, 14:27:18.530
86, -11.07, -49.72, 0.00, 10.28, 0.000, 0.000, 0.000, 14:27:18.530
87, -6.43, -51.59, 0.00, 9.93, 0.000, 0.000, 0.000, 14:27:18.545
88, 3.07, -46.86, 0.00, 9.11, 0.000, 0.000, 0.000, 14:27:18.545
89, -2.94, -44.76, 0.00, 8.37, 0.000, 0.000, 0.000, 14:27:18.546
90, -16.97, -46.44, 0.00, 8.90, 0.000, 0.000, 0.000, 14:27:18.546
91, -7.15, -47.43, 0.00, 8.89, 0.000, 0.000, 0.000, 14:27:18.560
92, 2.16, -43.30, 0.00, 7.23, 0.000, 0.000, 0.000, 14:27:18.560
93, -10.07, -41.00, 0.00, 6.34, 0.000, 0.000, 0.000, 14:27:18.575
94, -18.63, -47.49, 0.00, 7.86, 0.000, 0.000, 0.000, 14:27:18.575
95, -1.15, -50.25, 0.00, 8.37, 0.000, 0.000, 0.000, 14:27:18.575
96, 9.98, -47.33, 0.00, 10.84, 0.000, 0.000, 0.000, 14:27:18.576
97, 6.54, -44.93, 0.00, 8.21, 0.000, 0.000, 0.000, 14:27:18.591
98, -11.33, -49.78, 0.00, 5.92, 0.000, 0.000, 0.000, 14:27:18.591
99, -5.23, -52.43, 0.00, 8.30, 0.000, 0.000, 0.000, 14:27:18.605
100, 1.55, -49.69, 0.00, 9.50, 0.000, 0.000, 0.000, 14:27:18.605
101, 0.83, -50.34, 0.00, 8.20, 0.000, 0.000, 0.000, 14:27:18.605
102, -4.20, -51.85, 0.00, 10.04, 0.000, 0.000, 0.000, 14:27:18.605
103, -7.90, -52.12, 0.00, 5.14, 0.000, 0.000, 0.000, 14:27:18.621
104, 4.64, -49.03, 0.00, 7.12, 0.000, 0.000, 0.000, 14:27:18.621
105, 1.44, -50.58, 0.00, 9.64, 0.000, 0.000, 0.000, 14:27:18.635
106, -14.21, -52.70, 0.00, 11.57, 0.000, 0.000, 0.000, 14:27:18.635
107, -8.01, -52.72, 0.00, 6.96, 0.000, 0.000, 0.000, 14:27:18.636
108, -1.01, -51.79, 0.00, 9.53, 0.000, 0.000, 0.000, 14:27:18.636
109, 0.72, -50.63, 0.00, 7.22, 0.000, 0.000, 0.000, 14:27:18.650
110, -9.80, -53.51, 0.00, 7.49, 0.000, 0.000, 0.000, 14:27:18.650
111, -9.48, -54.66, 0.00, 12.68, 0.000, 0.000, 0.000, 14:27:18.665
112, -2.69, -50.25, 0.00, 5.80, 0.000, 0.000, 0.000, 14:27:18.665
113, -0.11, -48.86, 0.00, 8.28, 0.000, 0.000, 0.000, 14:27:18.665
114, -12.00, -54.90, 0.00, 10.37, 0.000, 0.000, 0.000, 14:27:18.665
115, -10.58, -54.58, 0.00, 9.92, 0.000, 0.000, 0.000, 14:27:18.681
116, 4.56, -52.08, 0.00, 7.46, 0.000, 0.000, 0.000, 14:27:18.681
117, -1.88, -48.84, 0.00, 10.32, 0.000, 0.000, 0.000, 14:27:18.695
118, -14.12, -49.26, 0.00, 10.79, 0.000, 0.000, 0.000, 14:27:18.695
119, -6.34, -53.65, 0.00, 4.72, 0.000, 0.000, 0.000, 14:27:18.696
120, 1.14, -50.39, 0.00, 9.67, 0.000, 0.000, 0.000, 14:27:18.696
121, -1.81, -48.94, 0.00, 13.91, 0.000, 0.000, 0.000, 14:27:18.711
122, -14.37, -50.37, 0.00, 7.89, 0.000, 0.000, 0.000, 14:27:18.711
123, -19.36, -55.83, 0.00, 9.22, 0.000, 0.000, 0.000, 14:27:18.725
124, 2.68, -52.54, 0.00, 8.67, 0.000, 0.000, 0.000, 14:27:18.725
125, 1.39, -50.07, 0.00, 10.26, 0.000, 0.000, 0.000, 14:27:18.726
126, -10.60, -54.98, 0.00, 7.31, 0.000, 0.000, 0.000, 14:27:18.726
127, -10.94, -53.62, 0.00, 8.46, 0.000, 0.000, 0.000, 14:27:18.740
128, 3.56, -51.43, 0.00, 6.85, 0.000, 0.000, 0.000, 14:27:18.740
129, -0.79, -47.05, 0.00, 9.86, 0.000, 0.000, 0.000, 14:27:18.755
130, -9.63, -51.87, 0.00, 5.90, 0.000, 0.000, 0.000, 14:27:18.755
131, -6.83, -56.55, 0.00, 10.03, 0.000, 0.000, 0.000, 14:27:18.755
132, -0.40, -49.91, 0.00, 6.40, 0.000, 0.000, 0.000, 14:27:18.755
133, -5.65, -47.38, 0.00, 5.41, 0.000, 0.000, 0.000, 14:27:18.770
134, -15.02, -50.16, 0.00, 5.78, 0.000, 0.000, 0.000, 14:27:18.770
135, -11.88, -53.95, 0.00, 4.20, 0.000, 0.000, 0.000, 14:27:18.786
136, -3.50, -50.74, 0.00, 9.57, 0.000, 0.000, 0.000, 14:27:18.786
137, 0.61, -46.95, 0.00, 8.50, 0.000, 0.000, 0.000, 14:27:18.786
138, -12.28, -50.39, 0.00, 8.46, 0.000, 0.000, 0.000, 14:27:18.786
139, -10.63, -53.42, 0.00, 9.07, 0.000, 0.000, 0.000, 14:27:18.800
140, 5.78, -49.72, 0.00, 9.70, 0.000, 0.000, 0.000, 14:27:18.800
141, -3.76, -48.68, 0.00, 7.71, 0.000, 0.000, 0.000, 14:27:18.816
142, -11.35, -48.37, 0.00, 5.86, 0.000, 0.000, 0.000, 14:27:18.816
143, -14.80, -49.81, 0.00, 9.54, 0.000, 0.000, 0.000, 14:27:18.816
144, 0.42, -49.71, 0.00, 6.45, 0.000, 0.000, 0.000, 14:27:18.816
145, -3.63, -45.96, 0.00, 9.76, 0.000, 0.000, 0.000, 14:27:18.830
146, -8.95, -48.81, 0.00, 6.23, 0.000, 0.000, 0.000, 14:27:18.830
147, -8.67, -49.49, 0.00, 3.50, 0.000, 0.000, 0.000, 14:27:18.846
148, -3.52, -51.14, 0.00, 8.81, 0.000, 0.000, 0.000, 14:27:18.846
149, 1.56, -47.97, 0.00, 8.45, 0.000, 0.000, 0.000, 14:27:18.846
150, -15.72, -49.66, 0.00, 7.95, 0.000, 0.000, 0.000, 14:27:18.846
151, -12.01, -53.42, 0.00, 7.75, 0.000, 0.000, 0.000, 14:27:18.860
152, 0.32, -49.05, 0.00, 8.26, 0.000, 0.000, 0.000, 14:27:18.860
153, -13.15, -46.52, 0.00, 4.93, 0.000, 0.000, 0.000, 14:27:18.875
154, -23.72, -49.67, 0.00, 6.29, 0.000, 0.000, 0.000, 14:27:18.875
155, -9.79, -51.09, 0.00, 8.33, 0.000, 0.000, 0.000, 14:27:18.875
156, -1.61, -47.92, 0.00, 10.96, 0.000, 0.000, 0.000, 14:27:18.875
157, -6.42, -46.89, 0.00, 12.42, 0.000, 0.000, 0.000, 14:27:18.891
158, -16.84, -52.88, 0.00, 9.39, 0.000, 0.000, 0.000, 14:27:18.891
159, -8.96, -52.15, 0.00, 4.82, 0.000, 0.000, 0.000, 14:27:18.905
160, 3.85, -49.88, 0.00, 9.83, 0.000, 0.000, 0.000, 14:27:18.905
161, 3.14, -47.78, 0.00, 5.29, 0.000, 0.000, 0.000, 14:27:18.905
162, -6.82, -49.75, 0.00, 8.52, 0.000, 0.000, 0.000, 14:27:18.906
163, -5.36, -52.54, 0.00, 6.22, 0.000, 0.000, 0.000, 14:27:18.920
164, -0.14, -47.21, 0.00, 6.76, 0.000, 0.000, 0.000, 14:27:18.920
165, -4.42, -47.79, 0.00, 7.19, 0.000, 0.000, 0.000, 14:27:18.935
166, -11.05, -49.38, 0.00, 10.07, 0.000, 0.000, 0.000, 14:27:18.935
167, -6.52, -54.42, 0.00, 6.17, 0.000, 0.000, 0.000, 14:27:18.936
168, -0.89, -49.45, 0.00, 7.95, 0.000, 0.000, 0.000, 14:27:18.936
169, -3.87, -50.13, 0.00, 6.65, 0.000, 0.000, 0.000, 14:27:18.950
170, -8.27, -52.35, 0.00, 7.91, 0.000, 0.000, 0.000, 14:27:18.950
171, -10.87, -54.95, 0.00, 8.21, 0.000, 0.000, 0.000, 14:27:18.965
172, -0.31, -49.00, 0.00, 8.73, 0.000, 0.000, 0.000, 14:27:18.965
173, -0.20, -43.84, 0.00, 11.25, 0.000, 0.000, 0.000, 14:27:18.966
174, -11.43, -49.80, 0.00, 8.32, 0.000, 0.000, 0.000, 14:27:18.966
175, -6.58, -50.81, 0.00, 9.06, 0.000, 0.000, 0.000, 14:27:18.981
176, -10.76, -46.05, 0.00, 9.00, 0.000, 0.000, 0.000, 14:27:18.981
177, -4.76, -47.32, 0.00, 10.57, 0.000, 0.000, 0.000, 14:27:18.995
178, -16.55, -44.96, 0.00, 9.47, 0.000, 0.000, 0.000, 14:27:18.995
179, -3.49, -49.42, 0.00, 10.43, 0.000, 0.000, 0.000, 14:27:18.995
180, -0.60, -45.88, 0.00, 7.57, 0.000, 0.000, 0.000, 14:27:18.995
181, -3.26, -46.03, 0.00, 9.93, 0.000, 0.000, 0.000, 14:27:19.010
182, -10.64, -50.16, 0.00, 9.16, 0.000, 0.000, 0.000, 14:27:19.010
183, -8.00, -51.45, 0.00, 8.90, 0.000, 0.000, 0.000, 14:27:19.026
184, -4.27, -47.50, 0.00, 13.69, 0.000, 0.000, 0.000, 14:27:19.026
185, 8.49, -47.80, 0.00, 10.00, 0.000, 0.000, 0.000, 14:27:19.026
186, -9.64, -53.43, 0.00, 10.85, 0.000, 0.000, 0.000, 14:27:19.026
187, -5.45, -54.95, 0.00, 6.91, 0.000, 0.000, 0.000, 14:27:19.040
188, 9.61, -51.38, 0.00, 9.15, 0.000, 0.000, 0.000, 14:27:19.040
189, 1.02, -46.63, 0.00, 14.56, 0.000, 0.000, 0.000, 14:27:19.055
190, -10.49, -50.10, 0.00, 8.94, 0.000, 0.000, 0.000, 14:27:19.055
191, -10.08, -49.60, 0.00, 7.61, 0.000, 0.000, 0.000, 14:27:19.055
192, -4.48, -48.36, 0.00, 7.97, 0.000, 0.000, 0.000, 14:27:19.055
193, -5.60, -44.49, 0.00, 6.08, 0.000, 0.000, 0.000, 14:27:19.071
194, -13.01, -47.05, 0.00, 9.57, 0.000, 0.000, 0.000, 14:27:19.071
195, -4.74, -49.20, 0.00, 8.03, 0.000, 0.000, 0.000, 14:27:19.086
196, -2.62, -47.35, 0.00, 6.73, 0.000, 0.000, 0.000, 14:27:19.086
197, 3.47, -48.34, 0.00, 7.41, 0.000, 0.000, 0.000, 14:27:19.086
198, -3.28, -48.31, 0.00, 6.73, 0.000, 0.000, 0.000, 14:27:19.086
199, -6.41, -51.72, 0.00, 11.65, 0.000, 0.000, 0.000, 14:27:19.100
200, 8.59, -51.84, 0.00, 9.46, 0.000, 0.000, 0.000, 14:27:19.100
0, 6.58, -49.40, 0.00, 9.42, 0.000, 0.000, 0.000, 14:27:19.100
1, -3.31, -47.29, 0.00, 5.53, 0.000, 0.000, 0.000, 14:27:19.115
2, -4.30, -53.43, 0.00, 8.09, 0.000, 0.000, 0.000, 14:27:19.116
3, 1.59, -50.17, 0.00, 7.99, 0.000, 0.000, 0.000, 14:27:19.131
4, -0.76, -47.08, 0.00, 12.96, 0.000, 0.000, 0.000, 14:27:19.131
5, -9.17, -48.29, 0.00, 13.17, 0.000, 0.000, 0.000, 14:27:19.132
6, -9.05, -51.30, 0.00, 12.10, 0.000, 0.000, 0.000, 14:27:19.132
7, -8.74, -49.20, 0.00, 8.25, 0.000, 0.000, 0.000, 14:27:19.146
8, 1.18, -41.22, 0.00, 9.65, 0.000, 0.000, 0.000, 14:27:19.146
9, -13.96, -44.61, 0.00, 12.04, 0.000, 0.000, 0.000, 14:27:19.160
10, -9.11, -47.85, 0.00, 7.04, 0.000, 0.000, 0.000, 14:27:19.161
11, 3.10, -43.64, 0.00, 5.22, 0.000, 0.000, 0.000, 14:27:19.161
12, -0.71, -41.53, 0.00, 12.69, 0.000, 0.000, 0.000, 14:27:19.161
13, -18.95, -44.12, 0.00, 12.64, 0.000, 0.000, 0.000, 14:27:19.191
14, -9.37, -49.11, 0.00, 12.89, 0.000, 0.000, 0.000, 14:27:19.191
15, 3.06, -44.34, 0.00, 7.67, 0.000, 0.000, 0.000, 14:27:19.191
16, -2.86, -38.78, 0.00, 13.47, 0.000, 0.000, 0.000, 14:27:19.191
17, -12.59, -43.56, 0.00, 7.97, 0.000, 0.000, 0.000, 14:27:19.191
18, -10.46, -45.41, 0.00, 5.48, 0.000, 0.000, 0.000, 14:27:19.191
19, -0.97, -43.17, 0.00, 6.70, 0.000, 0.000, 0.000, 14:27:19.205
20, 6.10, -44.14, 0.00, 6.84, 0.000, 0.000, 0.000, 14:27:19.205
21, -7.81, -43.59, 0.00, 9.89, 0.000, 0.000, 0.000, 14:27:19.220
22, -4.72, -45.46, 0.00, 11.40, 0.000, 0.000, 0.000, 14:27:19.220
23, 11.87, -47.61, 0.00, 6.12, 0.000, 0.000, 0.000, 14:27:19.220
24, 0.80, -43.72, 0.00, 8.34, 0.000, 0.000, 0.000, 14:27:19.220
25, -2.69, -45.02, 0.00, 9.72, 0.000, 0.000, 0.000, 14:27:19.235
26, -4.26, -48.38, 0.00, 9.46, 0.000, 0.000, 0.000, 14:27:19.235
27, 3.98, -48.46, 0.00, 5.88, 0.000, 0.000, 0.000, 14:27:19.250
28, -0.61, -42.35, 0.00, 8.67, 0.000, 0.000, 0.000, 14:27:19.251
29, -1.26, -43.42, 0.00, 10.22, 0.000, 0.000, 0.000, 14:27:19.251
30, -2.99, -47.56, 0.00, 9.75, 0.000, 0.000, 0.000, 14:27:19.251
31, 0.35, -45.61, 0.00, 11.05, 0.000, 0.000, 0.000, 14:27:19.265
32, 12.38, -42.95, 0.00, 9.34, 0.000, 0.000, 0.000, 14:27:19.265
33, -16.33, -48.85, 0.00, 10.66, 0.000, 0.000, 0.000, 14:27:19.280
34, -13.15, -49.43, 0.00, 7.29, 0.000, 0.000, 0.000, 14:27:19.281
35, 12.12, -47.59, 0.00, 8.60, 0.000, 0.000, 0.000, 14:27:19.281
36, 0.98, -46.24, 0.00, 7.25, 0.000, 0.000, 0.000, 14:27:19.281
37, -7.96, -47.53, 0.00, 6.71, 0.000, 0.000, 0.000, 14:27:19.295
38, -0.31, -51.05, 0.00, 9.98, 0.000, 0.000, 0.000, 14:27:19.295
39, 18.87, -47.97, 0.00, 9.09, 0.000, 0.000, 0.000, 14:27:19.310
40, 13.95, -44.51, 0.00, 6.72, 0.000, 0.000, 0.000, 14:27:19.310
41, -3.67, -47.15, 0.00, 8.41, 0.000, 0.000, 0.000, 14:27:19.310
42, -3.78, -49.38, 0.00, 8.49, 0.000, 0.000, 0.000, 14:27:19.310
43, 12.60, -48.22, 0.00, 8.60, 0.000, 0.000, 0.000, 14:27:19.332
44, 19.55, -43.48, 0.00, 7.93, 0.000, 0.000, 0.000, 14:27:19.332
45, -14.89, -47.60, 0.00, 10.47, 0.000, 0.000, 0.000, 14:27:19.341
46, -13.36, -49.07, 0.00, 10.37, 0.000, 0.000, 0.000, 14:27:19.341
47, 6.81, -49.14, 0.00, 7.59, 0.000, 0.000, 0.000, 14:27:19.341
48, -4.18, -47.83, 0.00, 5.00, 0.000, 0.000, 0.000, 14:27:19.341
49, -9.19, -51.19, 0.00, 9.61, 0.000, 0.000, 0.000, 14:27:19.356
50, -0.19, -53.04, 0.00, 6.30, 0.000, 0.000, 0.000, 14:27:19.356
51, 1.29, -45.79, 0.00, 6.71, 0.000, 0.000, 0.000, 14:27:19.371
52, -3.45, -44.16, 0.00, 7.46, 0.000, 0.000, 0.000, 14:27:19.371
53, 2.67, -46.83, 0.00, 9.77, 0.000, 0.000, 0.000, 14:27:19.371
54, -4.71, -52.22, 0.00, 9.11, 0.000, 0.000, 0.000, 14:27:19.371
55, 9.36, -48.24, 0.00, 11.81, 0.000, 0.000, 0.000, 14:27:19.386
56, 4.86, -48.70, 0.00, 8.41, 0.000, 0.000, 0.000, 14:27:19.386
57, -6.06, -42.41, 0.00, 9.59, 0.000, 0.000, 0.000, 14:27:19.400
58, -4.04, -46.46, 0.00, 10.57, 0.000, 0.000, 0.000, 14:27:19.400
59, 5.19, -46.15, 0.00, 7.15, 0.000, 0.000, 0.000, 14:27:19.401
60, -3.81, -46.42, 0.00, 14.29, 0.000, 0.000, 0.000, 14:27:19.401
61, -9.07, -49.32, 0.00, 7.52, 0.000, 0.000, 0.000, 14:27:19.415
62, -5.36, -49.96, 0.00, 10.95, 0.000, 0.000, 0.000, 14:27:19.415
63, 17.93, -45.53, 0.00, 7.43, 0.000, 0.000, 0.000, 14:27:19.430
64, 20.09, -47.08, 0.00, 3.23, 0.000, 0.000, 0.000, 14:27:19.430
65, -6.60, -45.96, 0.00, 12.79, 0.000, 0.000, 0.000, 14:27:19.431
66, -9.76, -49.76, 0.00, 6.47, 0.000, 0.000, 0.000, 14:27:19.431
67, 0.04, -50.25, 0.00, 10.50, 0.000, 0.000, 0.000, 14:27:19.445
68, 5.76, -50.49, 0.00, 8.04, 0.000, 0.000, 0.000, 14:27:19.445
69, -8.56, -48.43, 0.00, 13.96, 0.000, 0.000, 0.000, 14:27:19.460
70, -3.10, -51.35, 0.00, 11.09, 0.000, 0.000, 0.000, 14:27:19.461
71, 4.07, -51.15, 0.00, 9.52, 0.000, 0.000, 0.000, 14:27:19.461
72, 2.70, -48.53, 0.00, 7.29, 0.000, 0.000, 0.000, 14:27:19.461
73, -14.97, -50.70, 0.00, 11.98, 0.000, 0.000, 0.000, 14:27:19.475
74, -8.00, -50.59, 0.00, 8.80, 0.000, 0.000, 0.000, 14:27:19.475
75, -1.38, -50.36, 0.00, 11.02, 0.000, 0.000, 0.000, 14:27:19.491
76, 1.84, -47.20, 0.00, 12.08, 0.000, 0.000, 0.000, 14:27:19.491
77, -8.83, -48.12, 0.00, 2.86, 0.000, 0.000, 0.000, 14:27:19.491
78, -8.43, -49.99, 0.00, 12.02, 0.000, 0.000, 0.000, 14:27:19.491
79, -3.64, -49.47, 0.00, 7.92, 0.000, 0.000, 0.000, 14:27:19.506
80, 3.77, -43.89, 0.00, 8.41, 0.000, 0.000, 0.000, 14:27:19.506
81, -8.46, -43.63, 0.00, 12.47, 0.000, 0.000, 0.000, 14:27:19.520
82, -8.44, -48.88, 0.00, 8.79, 0.000, 0.000, 0.000, 14:27:19.521
83, -0.36, -46.94, 0.00, 8.90, 0.000, 0.000, 0.000, 14:27:19.521
84, -2.81, -46.38, 0.00, 4.46, 0.000, 0.000, 0.000, 14:27:19.521
85, -14.65, -46.18, 0.00, 10.85, 0.000, 0.000, 0.000, 14:27:19.535
86, -10.05, -44.33, 0.00, 4.36, 0.000, 0.000, 0.000, 14:27:19.535
87, 2.26, -46.49, 0.00, 9.74, 0.000, 0.000, 0.000, 14:27:19.549
88, -3.06, -47.53, 0.00, 8.27, 0.000, 0.000, 0.000, 14:27:19.550
89, -10.49, -44.53, 0.00, 7.85, 0.000, 0.000, 0.000, 14:27:19.550
90, -9.73, -50.05, 0.00, 6.78, 0.000, 0.000, 0.000, 14:27:19.551
91, -2.67, -46.29, 0.00, 8.58, 0.000, 0.000, 0.000, 14:27:19.566
92, 5.21, -44.21, 0.00, 6.14, 0.000, 0.000, 0.000, 14:27:19.566
93, -16.64, -49.30, 0.00, 6.70, 0.000, 0.000, 0.000, 14:27:19.581
94, -2.62, -50.27, 0.00, 6.80, 0.000, 0.000, 0.000, 14:27:19.581
95, 12.39, -48.83, 0.00, 8.24, 0.000, 0.000, 0.000, 14:27:19.581
96, 0.48, -47.25, 0.00, 12.45, 0.000, 0.000, 0.000, 14:27:19.581
97, -1.25, -48.13, 0.00, 10.26, 0.000, 0.000, 0.000, 14:27:19.595
98, -6.48, -49.88, 0.00, 10.84, 0.000, 0.000, 0.000, 14:27:19.595
99, 2.88, -50.26, 0.00, 7.77, 0.000, 0.000, 0.000, 14:27:19.610
100, -2.68, -46.47, 0.00, 9.23, 0.000, 0.000, 0.000, 14:27:19.611
101, -0.28, -48.95, 0.00, 7.04, 0.000, 0.000, 0.000, 14:27:19.618
102, -5.51, -48.85, 0.00, 8.65, 0.000, 0.000, 0.000, 14:27:19.618
103, 1.68, -49.13, 0.00, 7.78, 0.000, 0.000, 0.000, 14:27:19.625
104, 8.05, -46.04, 0.00, 9.29, 0.000, 0.000, 0.000, 14:27:19.625
105, -9.98, -46.66, 0.00, 5.75, 0.000, 0.000, 0.000, 14:27:19.640
106, -4.24, -50.57, 0.00, 9.51, 0.000, 0.000, 0.000, 14:27:19.640
107, 4.49, -47.51, 0.00, 10.84, 0.000, 0.000, 0.000, 14:27:19.641
108, 6.22, -45.83, 0.00, 7.46, 0.000, 0.000, 0.000, 14:27:19.641
109, -6.44, -52.36, 0.00, 7.45, 0.000, 0.000, 0.000, 14:27:19.655
110, -4.95, -52.13, 0.00, 6.38, 0.000, 0.000, 0.000, 14:27:19.655
111, 0.13, -47.50, 0.00, 12.19, 0.000, 0.000, 0.000, 14:27:19.671
112, -0.85, -51.29, 0.00, 8.23, 0.000, 0.000, 0.000, 14:27:19.671
113, -7.79, -49.52, 0.00, 9.04, 0.000, 0.000, 0.000, 14:27:19.671
114, -6.95, -51.67, 0.00, 10.04, 0.000, 0.000, 0.000, 14:27:19.671
115, -2.98, -46.60, 0.00, 8.18, 0.000, 0.000, 0.000, 14:27:19.686
116, 7.82, -44.91, 0.00, 8.35, 0.000, 0.000, 0.000, 14:27:19.686
117, -8.57, -46.61, 0.00, 7.62, 0.000, 0.000, 0.000, 14:27:19.700
118, -5.20, -50.91, 0.00, 5.72, 0.000, 0.000, 0.000, 14:27:19.700
119, 2.42, -49.66, 0.00, 7.71, 0.000, 0.000, 0.000, 14:27:19.701
120, -3.60, -46.42, 0.00, 5.08, 0.000, 0.000, 0.000, 14:27:19.701
121, -6.47, -48.76, 0.00, 7.49, 0.000, 0.000, 0.000, 14:27:19.716
122, -8.45, -50.91, 0.00, 5.07, 0.000, 0.000, 0.000, 14:27:19.716
123, -2.77, -47.04, 0.00, 9.98, 0.000, 0.000, 0.000, 14:27:19.730
124, -3.58, -42.92, 0.00, 8.14, 0.000, 0.000, 0.000, 14:27:19.730
125, -19.85, -45.68, 0.00, 9.50, 0.000, 0.000, 0.000, 14:27:19.730
126, -16.52, -51.62, 0.00, 9.59, 0.000, 0.000, 0.000, 14:27:19.731
127, 4.63, -44.66, 0.00, 6.91, 0.000, 0.000, 0.000, 14:27:19.745
128, 5.38, -44.33, 0.00, 6.56, 0.000, 0.000, 0.000, 14:27:19.745
129, -17.12, -44.00, 0.00, 8.26, 0.000, 0.000, 0.000, 14:27:19.761
130, -20.72, -46.41, 0.00, 12.06, 0.000, 0.000, 0.000, 14:27:19.761
131, -0.39, -46.24, 0.00, 10.20, 0.000, 0.000, 0.000, 14:27:19.761
132, -0.14, -38.85, 0.00, 10.61, 0.000, 0.000, 0.000, 14:27:19.762
133, -15.37, -44.38, 0.00, 11.29, 0.000, 0.000, 0.000, 14:27:19.776
134, -8.53, -47.50, 0.00, 6.15, 0.000, 0.000, 0.000, 14:27:19.776
135, -2.79, -48.34, 0.00, 9.60, 0.000, 0.000, 0.000, 14:27:19.791
136, 2.14, -41.87, 0.00, 11.21, 0.000, 0.000, 0.000, 14:27:19.791
137, -6.81, -44.83, 0.00, 9.17, 0.000, 0.000, 0.000, 14:27:19.791
138, -15.61, -49.08, 0.00, 8.44, 0.000, 0.000, 0.000, 14:27:19.791
139, -1.62, -47.63, 0.00, 10.37, 0.000, 0.000, 0.000, 14:27:19.806
140, 17.79, -46.54, 0.00, 9.99, 0.000, 0.000, 0.000, 14:27:19.807
141, -5.74, -47.85, 0.00, 8.59, 0.000, 0.000, 0.000, 14:27:19.821
142, -4.90, -47.49, 0.00, 7.87, 0.000, 0.000, 0.000, 14:27:19.821
143, 4.45, -46.41, 0.00, 9.82, 0.000, 0.000, 0.000, 14:27:19.821
144, -4.29, -43.83, 0.00, 7.27, 0.000, 0.000, 0.000, 14:27:19.821
145, -14.13, -45.15, 0.00, 6.85, 0.000, 0.000, 0.000, 14:27:19.836
146, -13.78, -49.78, 0.00, 7.79, 0.000, 0.000, 0.000, 14:27:19.836
147, -2.27, -46.89, 0.00, 9.23, 0.000, 0.000, 0.000, 14:27:19.851
148, -1.99, -46.76, 0.00, 8.94, 0.000, 0.000, 0.000, 14:27:19.851
149, -1.35, -47.19, 0.00, 8.64, 0.000, 0.000, 0.000, 14:27:19.851
150, -5.42, -47.00, 0.00, 7.20, 0.000, 0.000, 0.000, 14:27:19.851
151, 2.07, -47.55, 0.00, 5.22, 0.000, 0.000, 0.000, 14:27:19.865
152, 11.10, -45.83, 0.00, 10.12, 0.000, 0.000, 0.000, 14:27:19.865
153, -12.56, -50.58, 0.00, 9.54, 0.000, 0.000, 0.000, 14:27:19.880
154, -8.44, -50.19, 0.00, 9.63, 0.000, 0.000, 0.000, 14:27:19.880
155, 5.16, -44.09, 0.00, 5.77, 0.000, 0.000, 0.000, 14:27:19.880
156, 0.37, -44.02, 0.00, 11.25, 0.000, 0.000, 0.000, 14:27:19.880
157, -4.88, -47.91, 0.00, 11.37, 0.000, 0.000, 0.000, 14:27:19.902
158, -3.20, -47.98, 0.00, 5.67, 0.000, 0.000, 0.000, 14:27:19.902
159, 4.20, -45.16, 0.00, 7.42, 0.000, 0.000, 0.000, 14:27:19.911
160, -0.12, -47.00, 0.00, 7.76, 0.000, 0.000, 0.000, 14:27:19.911
161, -6.54, -44.97, 0.00, 9.38, 0.000, 0.000, 0.000, 14:27:19.911
162, -3.97, -51.39, 0.00, 8.68, 0.000, 0.000, 0.000, 14:27:19.911
163, 0.92, -48.97, 0.00, 10.42, 0.000, 0.000, 0.000, 14:27:19.925
164, 3.40, -45.81, 0.00, 10.43, 0.000, 0.000, 0.000, 14:27:19.925
165, -12.14, -51.94, 0.00, 10.59, 0.000, 0.000, 0.000, 14:27:19.941
166, -8.07, -53.63, 0.00, 7.13, 0.000, 0.000, 0.000, 14:27:19.941
167, 8.95, -49.70, 0.00, 8.04, 0.000, 0.000, 0.000, 14:27:19.941
168, -4.93, -44.36, 0.00, 5.87, 0.000, 0.000, 0.000, 14:27:19.941
169, -8.42, -47.75, 0.00, 9.78, 0.000, 0.000, 0.000, 14:27:19.955
170, -10.40, -47.74, 0.00, 4.71, 0.000, 0.000, 0.000, 14:27:19.955
171, -2.73, -50.10, 0.00, 10.27, 0.000, 0.000, 0.000, 14:27:19.970
172, -0.51, -48.40, 0.00, 10.80, 0.000, 0.000, 0.000, 14:27:19.971
173, -0.64, -45.67, 0.00, 9.48, 0.000, 0.000, 0.000, 14:27:19.971
174, -3.28, -46.65, 0.00, 11.09, 0.000, 0.000, 0.000, 14:27:19.971
175, 3.49, -46.59, 0.00, 9.56, 0.000, 0.000, 0.000, 14:27:19.986
176, 7.35, -45.21, 0.00, 9.05, 0.000, 0.000, 0.000, 14:27:19.986
177, -13.60, -49.03, 0.00, 6.84, 0.000, 0.000, 0.000, 14:27:20.001
178, -12.45, -49.65, 0.00, 7.28, 0.000, 0.000, 0.000, 14:27:20.001
179, 2.10, -44.77, 0.00, 6.66, 0.000, 0.000, 0.000, 14:27:20.001
180, -3.09, -43.45, 0.00, 8.03, 0.000, 0.000, 0.000, 14:27:20.001
181, -10.54, -47.95, 0.00, 10.53, 0.000, 0.000, 0.000, 14:27:20.016
182, -10.91, -51.44, 0.00, 7.86, 0.000, 0.000, 0.000, 14:27:20.016
183, 0.08, -47.66, 0.00, 9.78, 0.000, 0.000, 0.000, 14:27:20.031
184, -0.65, -40.72, 0.00, 8.25, 0.000, 0.000, 0.000, 14:27:20.031
185, -1.96, -45.00, 0.00, 7.10, 0.000, 0.000, 0.000, 14:27:20.031
186, -10.83, -46.84, 0.00, 10.21, 0.000, 0.000, 0.000, 14:27:20.032
187, -4.58, -42.09, 0.00, 8.12, 0.000, 0.000, 0.000, 14:27:20.048
188, 8.87, -43.02, 0.00, 7.99, 0.000, 0.000, 0.000, 14:27:20.048
189, -12.79, -41.94, 0.00, 5.17, 0.000, 0.000, 0.000, 14:27:20.061
190, -6.37, -43.75, 0.00, 6.48, 0.000, 0.000, 0.000, 14:27:20.061
191, 9.57, -47.72, 0.00, 5.86, 0.000, 0.000, 0.000, 14:27:20.062
192, -3.87, -43.17, 0.00, 8.70, 0.000, 0.000, 0.000, 14:27:20.062
193, -9.72, -44.09, 0.00, 8.57, 0.000, 0.000, 0.000, 14:27:20.075
194, -4.09, -45.99, 0.00, 13.24, 0.000, 0.000, 0.000, 14:27:20.075
195, -3.57, -43.92, 0.00, 8.04, 0.000, 0.000, 0.000, 14:27:20.090
196, -2.40, -40.41, 0.00, 7.60, 0.000, 0.000, 0.000, 14:27:20.090
197, -8.90, -42.02, 0.00, 6.18, 0.000, 0.000, 0.000, 14:27:20.090
198, -11.46, -46.67, 0.00, 7.71, 0.000, 0.000, 0.000, 14:27:20.090
199, 0.95, -42.19, 0.00, 9.48, 0.000, 0.000, 0.000, 14:27:20.106
200, 16.68, -39.07, 0.00, 10.94, 0.000, 0.000, 0.000, 14:27:20.106
0, -8.94, -38.21, 0.00, 7.62, 0.000, 0.000, 0.000, 14:27:20.106
1, -12.25, -46.08, 0.00, 6.02, 0.000, 0.000, 0.000, 14:27:20.121
2, 3.30, -41.43, 0.00, 8.74, 0.000, 0.000, 0.000, 14:27:20.121
3, 1.88, -40.83, 0.00, 8.58, 0.000, 0.000, 0.000, 14:27:20.135
4, -4.17, -42.48, 0.00, 7.54, 0.000, 0.000, 0.000, 14:27:20.135
5, -1.61, -44.97, 0.00, 8.53, 0.000, 0.000, 0.000, 14:27:20.135
6, -1.10, -42.24, 0.00, 7.14, 0.000, 0.000, 0.000, 14:27:20.135
7, -3.48, -43.83, 0.00, 12.18, 0.000, 0.000, 0.000, 14:27:20.150
8, -5.02, -41.66, 0.00, 7.73, 0.000, 0.000, 0.000, 14:27:20.150
9, -8.63, -43.93, 0.00, 7.69, 0.000, 0.000, 0.000, 14:27:20.165
10, 1.54, -42.37, 0.00, 10.57, 0.000, 0.000, 0.000, 14:27:20.165
11, 14.42, -36.66, 0.00, 8.58, 0.000, 0.000, 0.000, 14:27:20.165
12, -3.97, -40.18, 0.00, 8.52, 0.000, 0.000, 0.000, 14:27:20.166
13, -11.26, -44.35, 0.00, 6.51, 0.000, 0.000, 0.000, 14:27:20.180
14, 2.01, -42.64, 0.00, 7.13, 0.000, 0.000, 0.000, 14:27:20.180
15, -2.41, -41.29, 0.00, 6.76, 0.000, 0.000, 0.000, 14:27:20.195
16, -1.59, -41.77, 0.00, 10.37, 0.000, 0.000, 0.000, 14:27:20.195
17, -2.61, -47.59, 0.00, 9.27, 0.000, 0.000, 0.000, 14:27:20.195
18, 9.64, -47.24, 0.00, 9.31, 0.000, 0.000, 0.000, 14:27:20.195
19, 0.14, -41.77, 0.00, 10.03, 0.000, 0.000, 0.000, 14:27:20.212
20, -5.60, -45.82, 0.00, 10.06, 0.000, 0.000, 0.000, 14:27:20.212
21, -12.96, -48.10, 0.00, 7.06, 0.000, 0.000, 0.000, 14:27:20.226
22, 3.77, -47.50, 0.00, 11.31, 0.000, 0.000, 0.000, 14:27:20.226
23, 14.56, -41.69, 0.00, 10.44, 0.000, 0.000, 0.000, 14:27:20.226
24, -7.60, -43.99, 0.00, 9.28, 0.000, 0.000, 0.000, 14:27:20.226
25, -8.12, -47.65, 0.00, 10.82, 0.000, 0.000, 0.000, 14:27:20.240
26, 12.49, -45.38, 0.00, 7.46, 0.000, 0.000, 0.000, 14:27:20.240
27, 1.89, -40.78, 0.00, 9.17, 0.000, 0.000, 0.000, 14:27:20.255
28, -12.96, -46.14, 0.00, 7.62, 0.000, 0.000, 0.000, 14:27:20.255
29, -9.76, -46.80, 0.00, 7.66, 0.000, 0.000, 0.000, 14:27:20.256
30, -0.04, -45.69, 0.00, 10.64, 0.000, 0.000, 0.000, 14:27:20.256
31, -2.58, -43.19, 0.00, 8.93, 0.000, 0.000, 0.000, 14:27:20.270
32, -2.04, -47.07, 0.00, 8.53, 0.000, 0.000, 0.000, 14:27:20.270
33, -2.78, -46.45, 0.00, 8.22, 0.000, 0.000, 0.000, 14:27:20.285
34, 21.33, -44.79, 0.00, 8.30, 0.000, 0.000, 0.000, 14:27:20.285
35, 11.99, -40.13, 0.00, 8.72, 0.000, 0.000, 0.000, 14:27:20.285
36, -4.15, -44.23, 0.00, 10.38, 0.000, 0.000, 0.000, 14:27:20.286
37, -10.95, -44.70, 0.00, 11.28, 0.000, 0.000, 0.000, 14:27:20.300
38, 10.01, -43.27, 0.00, 7.85, 0.000, 0.000, 0.000, 14:27:20.300
39, 0.66, -37.60, 0.00, 10.13, 0.000, 0.000, 0.000, 14:27:20.315
40, -9.62, -43.20, 0.00, 12.12, 0.000, 0.000, 0.000, 14:27:20.315
41, -11.54, -45.95, 0.00, 6.25, 0.000, 0.000, 0.000, 14:27:20.315
42, -2.85, -44.35, 0.00, 7.16, 0.000, 0.000, 0.000, 14:27:20.315
43, -2.32, -39.20, 0.00, 7.71, 0.000, 0.000, 0.000, 14:27:20.331
44, -5.80, -43.60, 0.00, 9.02, 0.000, 0.000, 0.000, 14:27:20.331
45, -8.68, -47.78, 0.00, 7.97, 0.000, 0.000, 0.000, 14:27:20.345
46, -5.45, -44.46, 0.00, 9.07, 0.000, 0.000, 0.000, 14:27:20.346
47, 16.30, -41.21, 0.00, 10.91, 0.000, 0.000, 0.000, 14:27:20.346
48, -8.46, -44.72, 0.00, 6.84, 0.000, 0.000, 0.000, 14:27:20.346
49, -14.77, -45.97, 0.00, 6.39, 0.000, 0.000, 0.000, 14:27:20.375
50, 5.58, -46.24, 0.00, 5.66, 0.000, 0.000, 0.000, 14:27:20.375
51, 0.14, -38.40, 0.00, 8.82, 0.000, 0.000, 0.000, 14:27:20.376
52, -4.77, -40.55, 0.00, 7.09, 0.000, 0.000, 0.000, 14:27:20.376
53, -8.31, -46.22, 0.00, 10.23, 0.000, 0.000, 0.000, 14:27:20.376
54, -0.24, -45.93, 0.00, 10.66, 0.000, 0.000, 0.000, 14:27:20.376
55, 8.62, -39.70, 0.00, 3.40, 0.000, 0.000, 0.000, 14:27:20.390
56, -4.47, -39.87, 0.00, 3.57, 0.000, 0.000, 0.000, 14:27:20.391
57, -8.79, -43.78, 0.00, 10.23, 0.000, 0.000, 0.000, 14:27:20.405
58, 1.05, -42.14, 0.00, 6.73, 0.000, 0.000, 0.000, 14:27:20.405
59, 15.19, -35.20, 0.00, 7.92, 0.000, 0.000, 0.000, 14:27:20.406
60, -4.05, -37.93, 0.00, 11.59, 0.000, 0.000, 0.000, 14:27:20.406
61, -10.62, -45.54, 0.00, 9.21, 0.000, 0.000, 0.000, 14:27:20.420
62, 7.51, -41.07, 0.00, 8.42, 0.000, 0.000, 0.000, 14:27:20.420
63, 1.33, -37.36, 0.00, 10.93, 0.000, 0.000, 0.000, 14:27:20.436
64, -6.98, -40.64, 0.00, 6.01, 0.000, 0.000, 0.000, 14:27:20.436
65, -2.78, -44.15, 0.00, 10.90, 0.000, 0.000, 0.000, 14:27:20.436
66, -3.80, -45.65, 0.00, 8.65, 0.000, 0.000, 0.000, 14:27:20.436
67, -1.71, -35.16, 0.00, 6.47, 0.000, 0.000, 0.000, 14:27:20.450
68, 1.01, -43.04, 0.00, 7.68, 0.000, 0.000, 0.000, 14:27:20.450
69, -10.70, -46.95, 0.00, 8.39, 0.000, 0.000, 0.000, 14:27:20.466
70, -0.60, -44.80, 0.00, 6.01, 0.000, 0.000, 0.000, 14:27:20.466
71, 20.08, -38.92, 0.00, 7.50, 0.000, 0.000, 0.000, 14:27:20.466
72, -7.11, -40.65, 0.00, 9.70, 0.000, 0.000, 0.000, 14:27:20.467
73, -16.78, -43.32, 0.00, 7.25, 0.000, 0.000, 0.000, 14:27:20.481
74, 5.74, -40.69, 0.00, 4.15, 0.000, 0.000, 0.000, 14:27:20.481
75, 1.70, -39.70, 0.00, 6.34, 0.000, 0.000, 0.000, 14:27:20.496
76, -7.47, -40.72, 0.00, 7.32, 0.000, 0.000, 0.000, 14:27:20.496
77, -10.80, -44.49, 0.00, 6.86, 0.000, 0.000, 0.000, 14:27:20.496
78, -0.30, -41.36, 0.00, 6.65, 0.000, 0.000, 0.000, 14:27:20.496
79, 0.22, -35.66, 0.00, 8.88, 0.000, 0.000, 0.000, 14:27:20.511
80, -0.58, -36.54, 0.00, 10.13, 0.000, 0.000, 0.000, 14:27:20.511
81, -8.60, -39.07, 0.00, 13.29, 0.000, 0.000, 0.000, 14:27:20.525
82, -2.12, -36.56, 0.00, 6.13, 0.000, 0.000, 0.000, 14:27:20.526
83, 21.28, -29.84, 0.00, 12.45, 0.000, 0.000, 0.000, 14:27:20.526
84, -4.22, -34.07, 0.00, 9.16, 0.000, 0.000, 0.000, 14:27:20.526
85, -14.27, -42.35, 0.00, 2.94, 0.000, 0.000, 0.000, 14:27:20.540
86, -0.22, -39.56, 0.00, 7.91, 0.000, 0.000, 0.000, 14:27:20.540
87, 18.29, -30.70, 0.00, 9.46, 0.000, 0.000, 0.000, 14:27:20.555
88, -8.86, -35.20, 0.00, 11.57, 0.000, 0.000, 0.000, 14:27:20.556
89, -12.78, -42.32, 0.00, 8.40, 0.000, 0.000, 0.000, 14:27:20.556
90, 0.40, -43.43, 0.00, 10.86, 0.000, 0.000, 0.000, 14:27:20.556
91, 3.19, -37.26, 0.00, 11.54, 0.000, 0.000, 0.000, 14:27:20.571
92, -4.42, -36.84, 0.00, 9.83, 0.000, 0.000, 0.000, 14:27:20.571
93, -14.34, -43.39, 0.00, 9.61, 0.000, 0.000, 0.000, 14:27:20.585
94, -0.56, -40.24, 0.00, 10.57, 0.000, 0.000, 0.000, 14:27:20.585
95, 12.49, -38.88, 0.00, 5.19, 0.000, 0.000, 0.000, 14:27:20.586
96, -3.96, -35.99, 0.00, 8.70, 0.000, 0.000, 0.000, 14:27:20.586
97, -13.11, -44.70, 0.00, 9.71, 0.000, 0.000, 0.000, 14:27:20.601
98, -0.19, -37.12, 0.00, 10.67, 0.000, 0.000, 0.000, 14:27:20.601
99, 2.96, -33.09, 0.00, 7.49, 0.000, 0.000, 0.000, 14:27:20.616
100, -6.06, -37.15, 0.00, 13.23, 0.000, 0.000, 0.000, 14:27:20.616
101, -10.69, -41.50, 0.00, 7.43, 0.000, 0.000, 0.000, 14:27:20.616
102, -2.24, -38.50, 0.00, 9.03, 0.000, 0.000, 0.000, 14:27:20.616
103, 12.79, -34.15, 0.00, 10.58, 0.000, 0.000, 0.000, 14:27:20.631
104, -7.26, -36.26, 0.00, 11.21, 0.000, 0.000, 0.000, 14:27:20.631
105, -15.81, -39.60, 0.00, 6.74, 0.000, 0.000, 0.000, 14:27:20.646
106, -4.81, -37.79, 0.00, 8.53, 0.000, 0.000, 0.000, 14:27:20.646
107, 9.58, -32.15, 0.00, 10.31, 0.000, 0.000, 0.000, 14:27:20.646
108, -2.93, -31.79, 0.00, 12.00, 0.000, 0.000, 0.000, 14:27:20.646
109, -9.68, -34.14, 0.00, 9.74, 0.000, 0.000, 0.000, 14:27:20.660
110, 3.19, -32.59, 0.00, 8.59, 0.000, 0.000, 0.000, 14:27:20.661
111, 8.21, -29.28, 0.00, 9.30, 0.000, 0.000, 0.000, 14:27:20.675
112, -5.63, -30.08, 0.00, 10.92, 0.000, 0.000, 0.000, 14:27:20.675
113, -11.22, -38.72, 0.00, 8.07, 0.000, 0.000, 0.000, 14:27:20.676
114, -2.17, -35.25, 0.00, 9.50, 0.000, 0.000, 0.000, 14:27:20.676
115, 3.22, -29.83, 0.00, 12.61, 0.000, 0.000, 0.000, 14:27:20.690
116, -3.46, -30.24, 0.00, 8.84, 0.000, 0.000, 0.000, 14:27:20.690
117, -15.71, -37.33, 0.00, 7.88, 0.000, 0.000, 0.000, 14:27:20.705
118, -1.29, -37.22, 0.00, 8.87, 0.000, 0.000, 0.000, 14:27:20.705
119, 14.40, -31.03, 0.00, 7.63, 0.000, 0.000, 0.000, 14:27:20.705
120, -4.79, -32.30, 0.00, 7.20, 0.000, 0.000, 0.000, 14:27:20.705
121, -15.99, -41.43, 0.00, 9.12, 0.000, 0.000, 0.000, 14:27:20.721
122, 1.19, -38.35, 0.00, 12.57, 0.000, 0.000, 0.000, 14:27:20.721
123, 1.57, -39.32, 0.00, 2.65, 0.000, 0.000, 0.000, 14:27:20.736
124, -9.25, -39.23, 0.00, 9.71, 0.000, 0.000, 0.000, 14:27:20.736
125, -12.24, -44.55, 0.00, 7.04, 0.000, 0.000, 0.000, 14:27:20.736
126, -8.12, -44.30, 0.00, 10.99, 0.000, 0.000, 0.000, 14:27:20.736
127, 1.01, -36.34, 0.00, 13.16, 0.000, 0.000, 0.000, 14:27:20.751
128, -2.23, -42.21, 0.00, 9.19, 0.000, 0.000, 0.000, 14:27:20.751
129, -19.39, -45.16, 0.00, 9.20, 0.000, 0.000, 0.000, 14:27:20.766
130, -1.36, -48.45, 0.00, 9.44, 0.000, 0.000, 0.000, 14:27:20.766
131, 8.27, -39.36, 0.00, 9.25, 0.000, 0.000, 0.000, 14:27:20.766
132, -10.88, -42.24, 0.00, 11.21, 0.000, 0.000, 0.000, 14:27:20.767
133, -7.57, -43.42, 0.00, 8.24, 0.000, 0.000, 0.000, 14:27:20.780
134, 8.39, -44.82, 0.00, 4.46, 0.000, 0.000, 0.000, 14:27:20.780
135, 0.68, -43.04, 0.00, 8.89, 0.000, 0.000, 0.000, 14:27:20.796
136, -13.00, -44.92, 0.00, 8.27, 0.000, 0.000, 0.000, 14:27:20.796
137, -8.87, -46.76, 0.00, 11.24, 0.000, 0.000, 0.000, 14:27:20.796
138, -0.88, -48.37, 0.00, 8.11, 0.000, 0.000, 0.000, 14:27:20.797
139, 0.92, -44.08, 0.00, 7.14, 0.000, 0.000, 0.000, 14:27:20.810
140, -7.05, -46.71, 0.00, 9.55, 0.000, 0.000, 0.000, 14:27:20.810
141, -7.59, -51.61, 0.00, 5.95, 0.000, 0.000, 0.000, 14:27:20.826
142, 2.84, -52.51, 0.00, 10.69, 0.000, 0.000, 0.000, 14:27:20.826
143, 10.13, -49.85, 0.00, 12.00, 0.000, 0.000, 0.000, 14:27:20.833
144, -9.45, -50.11, 0.00, 5.68, 0.000, 0.000, 0.000, 14:27:20.833
145, -16.72, -52.75, 0.00, 9.01, 0.000, 0.000, 0.000, 14:27:20.841
146, 5.34, -49.46, 0.00, 8.88, 0.000, 0.000, 0.000, 14:27:20.841
147, -1.08, -48.00, 0.00, 8.66, 0.000, 0.000, 0.000, 14:27:20.855
148, -11.48, -47.77, 0.00, 7.67, 0.000, 0.000, 0.000, 14:27:20.855
149, -5.45, -51.78, 0.00, 10.60, 0.000, 0.000, 0.000, 14:27:20.855
150, 4.92, -49.43, 0.00, 7.96, 0.000, 0.000, 0.000, 14:27:20.855
151, 0.76, -49.32, 0.00, 7.76, 0.000, 0.000, 0.000, 14:27:20.871
152, -6.42, -46.36, 0.00, 7.70, 0.000, 0.000, 0.000, 14:27:20.871
153, -5.04, -50.52, 0.00, 8.99, 0.000, 0.000, 0.000, 14:27:20.885
154, -1.74, -52.65, 0.00, 9.22, 0.000, 0.000, 0.000, 14:27:20.885
155, 7.69, -46.12, 0.00, 8.35, 0.000, 0.000, 0.000, 14:27:20.886
156, -6.12, -44.67, 0.00, 8.28, 0.000, 0.000, 0.000, 14:27:20.886
157, -7.41, -48.09, 0.00, 11.14, 0.000, 0.000, 0.000, 14:27:20.900
158, 1.83, -48.73, 0.00, 8.15, 0.000, 0.000, 0.000, 14:27:20.900
159, 6.75, -48.01, 0.00, 9.62, 0.000, 0.000, 0.000, 14:27:20.915
160, -6.87, -45.67, 0.00, 11.12, 0.000, 0.000, 0.000, 14:27:20.915
161, -14.57, -52.00, 0.00, 4.38, 0.000, 0.000, 0.000, 14:27:20.915
162, 0.21, -50.43, 0.00, 8.58, 0.000, 0.000, 0.000, 14:27:20.915
163, -2.33, -43.85, 0.00, 6.74, 0.000, 0.000, 0.000, 14:27:20.930
164, 1.63, -47.83, 0.00, 10.65, 0.000, 0.000, 0.000, 14:27:20.930
165, -8.92, -48.92, 0.00, 10.38, 0.000, 0.000, 0.000, 14:27:20.945
166, -1.39, -47.49, 0.00, 12.27, 0.000, 0.000, 0.000, 14:27:20.945
167, 0.53, -45.78, 0.00, 9.49, 0.000, 0.000, 0.000, 14:27:20.945
168, -11.41, -47.38, 0.00, 11.35, 0.000, 0.000, 0.000, 14:27:20.945
169, -9.49, -50.33, 0.00, 9.48, 0.000, 0.000, 0.000, 14:27:20.960
170, 4.13, -48.16, 0.00, 7.16, 0.000, 0.000, 0.000, 14:27:20.960
171, -4.64, -44.75, 0.00, 5.54, 0.000, 0.000, 0.000, 14:27:20.975
172, -15.00, -48.42, 0.00, 6.07, 0.000, 0.000, 0.000, 14:27:20.975
173, -9.38, -50.81, 0.00, 8.23, 0.000, 0.000, 0.000, 14:27:20.976
174, -9.71, -47.36, 0.00, 7.08, 0.000, 0.000, 0.000, 14:27:20.976
175, 0.72, -46.91, 0.00, 9.78, 0.000, 0.000, 0.000, 14:27:20.990
176, -9.00, -44.90, 0.00, 12.06, 0.000, 0.000, 0.000, 14:27:20.990
177, -13.95, -50.56, 0.00, 12.35, 0.000, 0.000, 0.000, 14:27:21.005
178, -1.88, -50.91, 0.00, 9.88, 0.000, 0.000, 0.000, 14:27:21.005
179, 0.45, -47.66, 0.00, 7.27, 0.000, 0.000, 0.000, 14:27:21.006
180, -3.56, -49.55, 0.00, 10.17, 0.000, 0.000, 0.000, 14:27:21.006
181, -6.71, -47.83, 0.00, 8.07, 0.000, 0.000, 0.000, 14:27:21.021
182, -0.44, -51.16, 0.00, 8.94, 0.000, 0.000, 0.000, 14:27:21.021
183, -1.08, -48.71, 0.00, 8.54, 0.000, 0.000, 0.000, 14:27:21.035
184, -8.23, -47.09, 0.00, 6.75, 0.000, 0.000, 0.000, 14:27:21.035
185, -6.66, -46.51, 0.00, 11.20, 0.000, 0.000, 0.000, 14:27:21.036
186, -7.02, -45.76, 0.00, 10.99, 0.000, 0.000, 0.000, 14:27:21.036
187, -6.67, -45.19, 0.00, 5.60, 0.000, 0.000, 0.000, 14:27:21.050
188, -11.40, -44.40, 0.00, 10.97, 0.000, 0.000, 0.000, 14:27:21.051
189, -7.33, -45.62, 0.00, 7.26, 0.000, 0.000, 0.000, 14:27:21.066
190, -7.80, -43.03, 0.00, 12.43, 0.000, 0.000, 0.000, 14:27:21.066
191, -0.73, -46.36, 0.00, 6.92, 0.000, 0.000, 0.000, 14:27:21.066
192, -19.67, -45.75, 0.00, 5.29, 0.000, 0.000, 0.000, 14:27:21.066
193, -3.92, -49.34, 0.00, 5.17, 0.000, 0.000, 0.000, 14:27:21.081
194, 4.00, -48.90, 0.00, 9.59, 0.000, 0.000, 0.000, 14:27:21.081
195, 0.03, -44.87, 0.00, 10.14, 0.000, 0.000, 0.000, 14:27:21.096
196, -6.11, -50.05, 0.00, 13.06, 0.000, 0.000, 0.000, 14:27:21.096
197, -2.59, -52.07, 0.00, 12.55, 0.000, 0.000, 0.000, 14:27:21.102
198, -0.41, -50.47, 0.00, 9.60, 0.000, 0.000, 0.000, 14:27:21.103
199, -0.63, -43.47, 0.00, 8.11, 0.000, 0.000, 0.000, 14:27:21.110
200, -10.47, -43.41, 0.00, 9.08, 0.000, 0.000, 0.000, 14:27:21.110
0, -12.54, -49.29, 0.00, 9.64, 0.000, 0.000, 0.000, 14:27:21.111
1, -6.80, -46.87, 0.00, 10.14, 0.000, 0.000, 0.000, 14:27:21.125
2, 2.04, -45.92, 0.00, 8.64, 0.000, 0.000, 0.000, 14:27:21.126
3, -10.03, -46.69, 0.00, 6.88, 0.000, 0.000, 0.000, 14:27:21.139
4, -1.60, -49.27, 0.00, 5.88, 0.000, 0.000, 0.000, 14:27:21.140
5, 2.49, -49.08, 0.00, 5.60, 0.000, 0.000, 0.000, 14:27:21.140
6, -4.78, -45.28, 0.00, 10.75, 0.000, 0.000, 0.000, 14:27:21.140
7, -11.99, -46.68, 0.00, 13.29, 0.000, 0.000, 0.000, 14:27:21.155
8, -14.05, -48.22, 0.00, 8.09, 0.000, 0.000, 0.000, 14:27:21.155
9, -2.03, -46.20, 0.00, 7.43, 0.000, 0.000, 0.000, 14:27:21.170
10, -0.99, -46.68, 0.00, 8.16, 0.000, 0.000, 0.000, 14:27:21.170
11, -12.50, -47.78, 0.00, 6.20, 0.000, 0.000, 0.000, 14:27:21.171
12, -6.20, -46.96, 0.00, 7.62, 0.000, 0.000, 0.000, 14:27:21.171
13, -3.33, -48.96, 0.00, 6.71, 0.000, 0.000, 0.000, 14:27:21.186
14, 3.47, -46.56, 0.00, 4.63, 0.000, 0.000, 0.000, 14:27:21.186
15, -6.27, -45.16, 0.00, 12.00, 0.000, 0.000, 0.000, 14:27:21.201
16, -6.46, -49.20, 0.00, 6.60, 0.000, 0.000, 0.000, 14:27:21.201
17, 0.76, -46.32, 0.00, 8.77, 0.000, 0.000, 0.000, 14:27:21.201
18, 4.43, -44.58, 0.00, 2.92, 0.000, 0.000, 0.000, 14:27:21.201
19, -4.00, -49.79, 0.00, 12.44, 0.000, 0.000, 0.000, 14:27:21.216
20, -3.85, -51.48, 0.00, 7.92, 0.000, 0.000, 0.000, 14:27:21.216
21, 0.16, -51.12, 0.00, 9.10, 0.000, 0.000, 0.000, 14:27:21.231
22, -2.09, -47.63, 0.00, 10.17, 0.000, 0.000, 0.000, 14:27:21.231
23, 1.54, -48.54, 0.00, 9.00, 0.000, 0.000, 0.000, 14:27:21.231
24, -12.94, -48.08, 0.00, 7.14, 0.000, 0.000, 0.000, 14:27:21.231
25, -4.73, -50.61, 0.00, 13.65, 0.000, 0.000, 0.000, 14:27:21.246
26, 2.60, -47.32, 0.00, 4.01, 0.000, 0.000, 0.000, 14:27:21.246
27, -13.68, -50.34, 0.00, 11.69, 0.000, 0.000, 0.000, 14:27:21.260
28, -13.31, -53.97, 0.00, 11.28, 0.000, 0.000, 0.000, 14:27:21.261
29, 3.96, -52.25, 0.00, 7.42, 0.000, 0.000, 0.000, 14:27:21.261
30, 2.36, -46.23, 0.00, 12.51, 0.000, 0.000, 0.000, 14:27:21.261
31, -5.18, -47.26, 0.00, 8.83, 0.000, 0.000, 0.000, 14:27:21.275
32, -10.45, -54.16, 0.00, 7.47, 0.000, 0.000, 0.000, 14:27:21.275
33, -5.75, -49.82, 0.00, 7.89, 0.000, 0.000, 0.000, 14:27:21.290
34, 0.62, -48.18, 0.00, 5.88, 0.000, 0.000, 0.000, 14:27:21.290
35, -10.63, -48.54, 0.00, 7.01, 0.000, 0.000, 0.000, 14:27:21.290
36, -7.58, -47.38, 0.00, 11.94, 0.000, 0.000, 0.000, 14:27:21.290
37, -3.13, -48.00, 0.00, 9.48, 0.000, 0.000, 0.000, 14:27:21.306
38, -0.39, -47.34, 0.00, 7.58, 0.000, 0.000, 0.000, 14:27:21.306
39, -4.84, -47.12, 0.00, 5.03, 0.000, 0.000, 0.000, 14:27:21.320
40, -12.47, -49.87, 0.00, 7.89, 0.000, 0.000, 0.000, 14:27:21.320
41, 5.46, -51.72, 0.00, 9.28, 0.000, 0.000, 0.000, 14:27:21.320
42, 5.00, -47.58, 0.00, 7.94, 0.000, 0.000, 0.000, 14:27:21.320
43, -4.50, -49.29, 0.00, 7.05, 0.000, 0.000, 0.000, 14:27:21.336
44, -12.14, -51.54, 0.00, 6.50, 0.000, 0.000, 0.000, 14:27:21.336
45, 0.79, -47.69, 0.00, 8.05, 0.000, 0.000, 0.000, 14:27:21.351
46, -0.17, -46.43, 0.00, 11.21, 0.000, 0.000, 0.000, 14:27:21.351
47, 0.36, -50.50, 0.00, 10.14, 0.000, 0.000, 0.000, 14:27:21.352
48, -11.88, -51.97, 0.00, 6.56, 0.000, 0.000, 0.000, 14:27:21.352
49, -2.20, -49.75, 0.00, 10.78, 0.000, 0.000, 0.000, 14:27:21.366
50, 2.98, -44.64, 0.00, 7.41, 0.000, 0.000, 0.000, 14:27:21.366
51, -15.87, -47.76, 0.00, 5.00, 0.000, 0.000, 0.000, 14:27:21.381
52, -15.64, -47.36, 0.00, 7.81, 0.000, 0.000, 0.000, 14:27:21.381
53, -2.17, -51.07, 0.00, 11.73, 0.000, 0.000, 0.000, 14:27:21.381
54, -1.30, -51.22, 0.00, 7.96, 0.000, 0.000, 0.000, 14:27:21.381
55, -8.83, -50.06, 0.00, 7.77, 0.000, 0.000, 0.000, 14:27:21.395
56, -13.81, -52.77, 0.00, 10.33, 0.000, 0.000, 0.000, 14:27:21.395
57, -3.40, -51.00, 0.00, 7.58, 0.000, 0.000, 0.000, 14:27:21.410
58, 2.43, -50.97, 0.00, 10.35, 0.000, 0.000, 0.000, 14:27:21.410
59, -2.50, -52.28, 0.00, 7.35, 0.000, 0.000, 0.000, 14:27:21.410
60, -17.39, -55.35, 0.00, 5.51, 0.000, 0.000, 0.000, 14:27:21.410
61, 1.79, -52.60, 0.00, 9.30, 0.000, 0.000, 0.000, 14:27:21.425
62, 4.67, -51.14, 0.00, 12.97, 0.000, 0.000, 0.000, 14:27:21.425
63, -5.95, -50.16, 0.00, 4.67, 0.000, 0.000, 0.000, 14:27:21.441
64, -12.53, -55.78, 0.00, 9.65, 0.000, 0.000, 0.000, 14:27:21.441
65, 2.36, -55.18, 0.00, 7.92, 0.000, 0.000, 0.000, 14:27:21.441
66, -0.42, -47.85, 0.00, 8.92, 0.000, 0.000, 0.000, 14:27:21.441
67, -8.75, -51.13, 0.00, 11.38, 0.000, 0.000, 0.000, 14:27:21.456
68, -13.93, -57.14, 0.00, 8.92, 0.000, 0.000, 0.000, 14:27:21.456
69, -3.07, -53.96, 0.00, 10.73, 0.000, 0.000, 0.000, 14:27:21.471
70, -3.47, -51.37, 0.00, 8.06, 0.000, 0.000, 0.000, 14:27:21.471
71, -5.74, -51.25, 0.00, 7.05, 0.000, 0.000, 0.000, 14:27:21.471
72, -24.84, -54.97, 0.00, 8.64, 0.000, 0.000, 0.000, 14:27:21.471
73, -6.32, -56.79, 0.00, 8.68, 0.000, 0.000, 0.000, 14:27:21.486
74, 3.60, -51.80, 0.00, 11.01, 0.000, 0.000, 0.000, 14:27:21.486
75, -11.55, -49.21, 0.00, 8.82, 0.000, 0.000, 0.000, 14:27:21.500
76, -19.59, -57.24, 0.00, 8.77, 0.000, 0.000, 0.000, 14:27:21.501
77, -0.00, -56.19, 0.00, 9.18, 0.000, 0.000, 0.000, 14:27:21.501
78, 2.29, -52.06, 0.00, 8.01, 0.000, 0.000, 0.000, 14:27:21.501
79, -10.60, -52.93, 0.00, 9.59, 0.000, 0.000, 0.000, 14:27:21.515
80, -19.14, -56.15, 0.00, 8.45, 0.000, 0.000, 0.000, 14:27:21.515
81, -1.75, -54.56, 0.00, 9.38, 0.000, 0.000, 0.000, 14:27:21.530
82, -1.07, -53.59, 0.00, 8.24, 0.000, 0.000, 0.000, 14:27:21.531
83, -4.04, -54.95, 0.00, 9.78, 0.000, 0.000, 0.000, 14:27:21.531
84, -17.73, -57.82, 0.00, 7.97, 0.000, 0.000, 0.000, 14:27:21.531
85, -5.97, -53.15, 0.00, 6.15, 0.000, 0.000, 0.000, 14:27:21.545
86, -2.93, -50.71, 0.00, 8.85, 0.000, 0.000, 0.000, 14:27:21.545
87, -6.75, -50.02, 0.00, 7.80, 0.000, 0.000, 0.000, 14:27:21.560
88, -18.18, -57.47, 0.00, 9.13, 0.000, 0.000, 0.000, 14:27:21.560
89, -3.90, -56.37, 0.00, 8.66, 0.000, 0.000, 0.000, 14:27:21.560
90, 1.00, -50.68, 0.00, 4.92, 0.000, 0.000, 0.000, 14:27:21.561
91, -6.94, -49.92, 0.00, 7.97, 0.000, 0.000, 0.000, 14:27:21.575
92, -16.36, -54.70, 0.00, 12.31, 0.000, 0.000, 0.000, 14:27:21.575
93, -5.55, -51.01, 0.00, 8.67, 0.000, 0.000, 0.000, 14:27:21.591
94, -7.06, -48.42, 0.00, 8.95, 0.000, 0.000, 0.000, 14:27:21.591
95, -15.29, -48.15, 0.00, 9.02, 0.000, 0.000, 0.000, 14:27:21.591
96, -13.50, -52.61, 0.00, 9.08, 0.000, 0.000, 0.000, 14:27:21.591
97, -0.95, -49.12, 0.00, 9.77, 0.000, 0.000, 0.000, 14:27:21.605
98, -2.70, -46.98, 0.00, 8.81, 0.000, 0.000, 0.000, 14:27:21.605
99, -10.40, -46.88, 0.00, 8.18, 0.000, 0.000, 0.000, 14:27:21.620
100, -16.69, -52.52, 0.00, 9.19, 0.000, 0.000, 0.000, 14:27:21.620
101, -5.82, -45.58, 0.00, 11.71, 0.000, 0.000, 0.000, 14:27:21.623
102, -6.32, -43.98, 0.00, 9.25, 0.000, 0.000, 0.000, 14:27:21.623
103, -17.21, -47.88, 0.00, 5.29, 0.000, 0.000, 0.000, 14:27:21.635
104, -13.80, -50.45, 0.00, 8.41, 0.000, 0.000, 0.000, 14:27:21.635
105, -2.92, -50.18, 0.00, 10.08, 0.000, 0.000, 0.000, 14:27:21.651
106, -4.49, -46.50, 0.00, 9.38, 0.000, 0.000, 0.000, 14:27:21.651
107, -8.61, -49.44, 0.00, 9.35, 0.000, 0.000, 0.000, 14:27:21.651
108, -18.56, -55.57, 0.00, 7.35, 0.000, 0.000, 0.000, 14:27:21.651
109, -4.03, -51.23, 0.00, 9.13, 0.000, 0.000, 0.000, 14:27:21.665
110, 2.51, -47.66, 0.00, 9.84, 0.000, 0.000, 0.000, 14:27:21.666
111, -11.51, -48.04, 0.00, 8.46, 0.000, 0.000, 0.000, 14:27:21.680
112, -16.33, -47.23, 0.00, 8.20, 0.000, 0.000, 0.000, 14:27:21.680
113, -6.31, -50.46, 0.00, 7.16, 0.000, 0.000, 0.000, 14:27:21.680
114, -2.80, -49.67, 0.00, 11.09, 0.000, 0.000, 0.000, 14:27:21.680
115, -4.81, -46.44, 0.00, 8.67, 0.000, 0.000, 0.000, 14:27:21.695
116, -16.24, -51.67, 0.00, 7.81, 0.000, 0.000, 0.000, 14:27:21.695
117, -4.50, -51.73, 0.00, 6.22, 0.000, 0.000, 0.000, 14:27:21.710
118, -7.26, -52.45, 0.00, 11.80, 0.000, 0.000, 0.000, 14:27:21.710
119, -6.71, -50.24, 0.00, 6.59, 0.000, 0.000, 0.000, 14:27:21.710
120, -17.40, -53.08, 0.00, 7.38, 0.000, 0.000, 0.000, 14:27:21.711
121, -4.33, -52.37, 0.00, 8.35, 0.000, 0.000, 0.000, 14:27:21.725
122, 10.88, -50.22, 0.00, 10.56, 0.000, 0.000, 0.000, 14:27:21.725
123, -3.22, -51.36, 0.00, 7.64, 0.000, 0.000, 0.000, 14:27:21.740
124, -15.08, -56.65, 0.00, 8.16, 0.000, 0.000, 0.000, 14:27:21.740
125, 1.20, -54.37, 0.00, 10.34, 0.000, 0.000, 0.000, 14:27:21.740
126, -0.29, -52.52, 0.00, 11.84, 0.000, 0.000, 0.000, 14:27:21.740
127, -5.43, -52.95, 0.00, 5.35, 0.000, 0.000, 0.000, 14:27:21.755
128, -11.89, -56.28, 0.00, 8.21, 0.000, 0.000, 0.000, 14:27:21.755
129, -0.86, -54.72, 0.00, 10.78, 0.000, 0.000, 0.000, 14:27:21.770
130, -1.86, -48.18, 0.00, 11.26, 0.000, 0.000, 0.000, 14:27:21.770
131, -2.53, -49.39, 0.00, 8.78, 0.000, 0.000, 0.000, 14:27:21.771
132, -15.29, -54.31, 0.00, 11.36, 0.000, 0.000, 0.000, 14:27:21.771
133, -6.68, -55.65, 0.00, 6.80, 0.000, 0.000, 0.000, 14:27:21.785
134, 1.82, -49.16, 0.00, 11.06, 0.000, 0.000, 0.000, 14:27:21.785
135, -7.77, -50.41, 0.00, 9.86, 0.000, 0.000, 0.000, 14:27:21.801
136, -19.03, -52.48, 0.00, 8.27, 0.000, 0.000, 0.000, 14:27:21.801
137, -4.79, -49.31, 0.00, 9.66, 0.000, 0.000, 0.000, 14:27:21.807
138, -4.66, -49.51, 0.00, 9.72, 0.000, 0.000, 0.000, 14:27:21.808
139, -13.11, -47.24, 0.00, 7.13, 0.000, 0.000, 0.000, 14:27:21.815
140, -15.25, -48.68, 0.00, 8.50, 0.000, 0.000, 0.000, 14:27:21.815
141, -2.56, -44.78, 0.00, 8.92, 0.000, 0.000, 0.000, 14:27:21.831
142, -0.49, -44.14, 0.00, 11.47, 0.000, 0.000, 0.000, 14:27:21.831
143, -7.46, -48.98, 0.00, 9.82, 0.000, 0.000, 0.000, 14:27:21.831
144, -22.08, -50.21, 0.00, 7.56, 0.000, 0.000, 0.000, 14:27:21.831
145, -1.60, -52.46, 0.00, 5.61, 0.000, 0.000, 0.000, 14:27:21.846
146, 1.54, -48.47, 0.00, 9.71, 0.000, 0.000, 0.000, 14:27:21.846
147, -8.18, -49.80, 0.00, 8.21, 0.000, 0.000, 0.000, 14:27:21.861
148, -12.10, -52.47, 0.00, 9.27, 0.000, 0.000, 0.000, 14:27:21.861
149, -0.69, -52.42, 0.00, 8.31, 0.000, 0.000, 0.000, 14:27:21.861
150, -4.72, -52.23, 0.00, 10.15, 0.000, 0.000, 0.000, 14:27:21.861
151, -9.94, -49.38, 0.00, 8.50, 0.000, 0.000, 0.000, 14:27:21.875
152, -11.04, -52.31, 0.00, 7.29, 0.000, 0.000, 0.000, 14:27:21.875
153, -0.35, -49.94, 0.00, 10.84, 0.000, 0.000, 0.000, 14:27:21.890
154, -0.97, -51.15, 0.00, 7.94, 0.000, 0.000, 0.000, 14:27:21.890
155, -5.09, -48.76, 0.00, 11.68, 0.000, 0.000, 0.000, 14:27:21.890
156, -12.32, -56.19, 0.00, 9.64, 0.000, 0.000, 0.000, 14:27:21.891
157, -3.74, -50.59, 0.00, 3.48, 0.000, 0.000, 0.000, 14:27:21.905
158, 0.07, -49.74, 0.00, 6.79, 0.000, 0.000, 0.000, 14:27:21.905
159, -14.57, -51.39, 0.00, 8.10, 0.000, 0.000, 0.000, 14:27:21.921
160, -14.22, -51.17, 0.00, 8.87, 0.000, 0.000, 0.000, 14:27:21.921
161, -7.86, -51.66, 0.00, 7.68, 0.000, 0.000, 0.000, 14:27:21.921
162, -5.31, -48.34, 0.00, 10.86, 0.000, 0.000, 0.000, 14:27:21.921
163, -17.38, -46.89, 0.00, 4.61, 0.000, 0.000, 0.000, 14:27:21.935
164, -13.74, -48.30, 0.00, 5.17, 0.000, 0.000, 0.000, 14:27:21.935
165, -2.44, -47.79, 0.00, 8.16, 0.000, 0.000, 0.000, 14:27:21.950
166, 0.46, -46.98, 0.00, 7.98, 0.000, 0.000, 0.000, 14:27:21.950
167, -5.55, -45.42, 0.00, 11.25, 0.000, 0.000, 0.000, 14:27:21.951
168, -10.93, -47.87, 0.00, 11.51, 0.000, 0.000, 0.000, 14:27:21.951
169, -2.96, -46.27, 0.00, 11.36, 0.000, 0.000, 0.000, 14:27:21.966
170, 1.83, -47.99, 0.00, 9.89, 0.000, 0.000, 0.000, 14:27:21.966
171, -13.79, -43.01, 0.00, 6.17, 0.000, 0.000, 0.000, 14:27:21.980
172, -5.23, -50.13, 0.00, 8.29, 0.000, 0.000, 0.000, 14:27:21.980
173, 1.87, -50.72, 0.00, 6.31, 0.000, 0.000, 0.000, 14:27:21.981
174, 1.08, -46.17, 0.00, 8.58, 0.000, 0.000, 0.000, 14:27:21.981
175, -4.48, -45.34, 0.00, 7.67, 0.000, 0.000, 0.000, 14:27:21.995
176, -10.06, -48.26, 0.00, 7.54, 0.000, 0.000, 0.000, 14:27:21.995
177, -5.22, -47.29, 0.00, 8.53, 0.000, 0.000, 0.000, 14:27:22.011
178, 0.38, -47.04, 0.00, 8.25, 0.000, 0.000, 0.000, 14:27:22.011
179, -6.44, -49.37, 0.00, 7.49, 0.000, 0.000, 0.000, 14:27:22.011
180, -7.90, -51.84, 0.00, 9.13, 0.000, 0.000, 0.000, 14:27:22.011
181, -3.22, -50.48, 0.00, 10.84, 0.000, 0.000, 0.000, 14:27:22.025
182, 3.83, -44.65, 0.00, 8.65, 0.000, 0.000, 0.000, 14:27:22.025
183, -12.79, -42.72, 0.00, 12.50, 0.000, 0.000, 0.000, 14:27:22.040
184, -12.17, -45.66, 0.00, 8.76, 0.000, 0.000, 0.000, 14:27:22.040
185, -2.43, -46.52, 0.00, 5.35, 0.000, 0.000, 0.000, 14:27:22.040
186, -0.84, -43.08, 0.00, 7.54, 0.000, 0.000, 0.000, 14:27:22.041
