%OpenBCI Raw EEG Data
%
%Sample Rate = 200.0 Hz
%First Column = SampleIndex
%Last Column = Timestamp 
%Other Columns = EEG data in microvolts followed by Accel Data (in G) interleaved with Aux Data
0, 50.27, 11.97, 0.00, 0.00, 0.000, 0.000, 0.000, 10:37:55.490
1, 44.86, 9.12, 0.00, 0.00, 0.000, 0.000, 0.000, 10:37:55.533
2, 46.55, 9.01, 0.00, 0.00, 0.000, 0.000, 0.000, 10:37:55.533
3, 42.23, 10.69, 0.00, 0.00, 0.000, 0.000, 0.000, 10:37:55.534
4, 43.42, 9.11, 0.00, 0.00, 0.000, 0.000, 0.000, 10:37:55.534
5, 44.26, 13.40, 0.00, 0.00, 0.000, 0.000, 0.000, 10:37:55.535
6, 41.14, 10.76, 0.00, 0.00, 0.000, 0.000, 0.000, 10:37:55.535
7, 37.70, 10.07, 0.00, 0.00, 0.000, 0.000, 0.000, 10:37:55.535
8, 41.61, 14.40, 0.00, 0.00, 0.000, 0.000, 0.000, 10:37:55.535
9, 41.74, 9.10, 0.00, 0.00, 0.000, 0.000, 0.000, 10:37:55.536
10, 39.42, 7.94, 0.00, 0.00, 0.000, 0.000, 0.000, 10:37:55.536
11, 38.76, 13.24, 0.00, 0.00, 0.000, 0.000, 0.000, 10:37:55.546
12, 40.33, 11.79, 0.00, 0.00, 0.000, 0.000, 0.000, 10:37:55.546
13, 43.38, 10.26, 0.00, 0.00, 0.000, 0.000, 0.000, 10:37:55.561
14, 39.78, 12.02, 0.00, 0.00, 0.000, 0.000, 0.000, 10:37:55.562
15, 36.63, 8.17, 0.00, 0.00, 0.000, 0.000, 0.000, 10:37:55.591
16, 40.90, 6.68, 0.00, 0.00, 0.000, 0.000, 0.000, 10:37:55.592
17, 37.93, 13.92, 0.00, 0.00, 0.000, 0.000, 0.000, 10:37:55.592
18, 36.66, 9.69, 0.00, 0.00, 0.000, 0.000, 0.000, 10:37:55.592
19, 39.24, 8.14, 0.00, 0.00, 0.000, 0.000, 0.000, 10:37:55.592
20, 39.68, 11.33, 0.00, 0.00, 0.000, 0.000, 0.000, 10:37:55.593
21, 40.59, 11.11, 0.00, 0.00, 0.000, 0.000, 0.000, 10:37:55.606
22, 40.22, 10.63, 0.00, 0.00, 0.000, 0.000, 0.000, 10:37:55.607
23, 39.26, 10.12, 0.00, 0.00, 0.000, 0.000, 0.000, 10:37:55.607
24, 39.90, 10.11, 0.00, 0.00, 0.000, 0.000, 0.000, 10:37:55.607
25, 41.38, 9.95, 0.00, 0.00, 0.000, 0.000, 0.000, 10:37:55.621
26, 42.05, 4.78, 0.00, 0.00, 0.000, 0.000, 0.000, 10:37:55.621
27, 38.12, 10.19, 0.00, 0.00, 0.000, 0.000, 0.000, 10:37:55.635
28, 40.94, 8.46, 0.00, 0.00, 0.000, 0.000, 0.000, 10:37:55.636
29, 39.11, 8.86, 0.00, 0.00, 0.000, 0.000, 0.000, 10:37:55.638
30, 42.01, 6.72, 0.00, 0.00, 0.000, 0.000, 0.000, 10:37:55.639
31, 42.27, 6.71, 0.00, 0.00, 0.000, 0.000, 0.000, 10:37:55.651
32, 43.17, 17.17, 0.00, 0.00, 0.000, 0.000, 0.000, 10:37:55.651
33, 41.22, 12.02, 0.00, 0.00, 0.000, 0.000, 0.000, 10:37:55.666
34, 39.58, 8.90, 0.00, 0.00, 0.000, 0.000, 0.000, 10:37:55.667
35, 39.42, 11.51, 0.00, 0.00, 0.000, 0.000, 0.000, 10:37:55.668
36, 39.12, 10.20, 0.00, 0.00, 0.000, 0.000, 0.000, 10:37:55.668
37, 41.62, 8.50, 0.00, 0.00, 0.000, 0.000, 0.000, 10:37:55.681
38, 37.39, 6.25, 0.00, 0.00, 0.000, 0.000, 0.000, 10:37:55.681
39, 38.22, 8.34, 0.00, 0.00, 0.000, 0.000, 0.000, 10:37:55.696
40, 41.17, 10.10, 0.00, 0.00, 0.000, 0.000, 0.000, 10:37:55.696
41, 42.41, 11.71, 0.00, 0.00, 0.000, 0.000, 0.000, 10:37:55.697
42, 39.78, 5.23, 0.00, 0.00, 0.000, 0.000, 0.000, 10:37:55.697
43, 39.97, 5.62, 0.00, 0.00, 0.000, 0.000, 0.000, 10:37:55.711
44, 40.65, 8.33, 0.00, 0.00, 0.000, 0.000, 0.000, 10:37:55.711
45, 41.03, 9.90, 0.00, 0.00, 0.000, 0.000, 0.000, 10:37:55.725
46, 40.46, 3.80, 0.00, 0.00, 0.000, 0.000, 0.000, 10:37:55.726
47, 41.94, 7.69, 0.00, 0.00, 0.000, 0.000, 0.000, 10:37:55.727
48, 43.44, 10.76, 0.00, 0.00, 0.000, 0.000, 0.000, 10:37:55.727
49, 42.27, 6.70, 0.00, 0.00, 0.000, 0.000, 0.000, 10:37:55.741
50, 41.32, 6.84, 0.00, 0.00, 0.000, 0.000, 0.000, 10:37:55.741
51, 43.04, 6.90, 0.00, 0.00, 0.000, 0.000, 0.000, 10:37:55.756
52, 42.01, 11.21, 0.00, 0.00, 0.000, 0.000, 0.000, 10:37:55.756
53, 44.20, 10.15, 0.00, 0.00, 0.000, 0.000, 0.000, 10:37:55.756
54, 42.69, 5.73, 0.00, 0.00, 0.000, 0.000, 0.000, 10:37:55.756
55, 41.20, 9.06, 0.00, 0.00, 0.000, 0.000, 0.000, 10:37:55.770
56, 46.99, 8.90, 0.00, 0.00, 0.000, 0.000, 0.000, 10:37:55.771
57, 45.31, 7.26, 0.00, 0.00, 0.000, 0.000, 0.000, 10:37:55.786
58, 45.25, 8.09, 0.00, 0.00, 0.000, 0.000, 0.000, 10:37:55.786
59, 46.42, 9.06, 0.00, 0.00, 0.000, 0.000, 0.000, 10:37:55.787
60, 42.81, 9.06, 0.00, 0.00, 0.000, 0.000, 0.000, 10:37:55.787
61, 45.73, 11.57, 0.00, 0.00, 0.000, 0.000, 0.000, 10:37:55.801
62, 44.07, 6.59, 0.00, 0.00, 0.000, 0.000, 0.000, 10:37:55.802
63, 43.73, 9.16, 0.00, 0.00, 0.000, 0.000, 0.000, 10:37:55.816
64, 47.46, 10.38, 0.00, 0.00, 0.000, 0.000, 0.000, 10:37:55.816
65, 46.49, 11.76, 0.00, 0.00, 0.000, 0.000, 0.000, 10:37:55.817
66, 39.26, 11.92, 0.00, 0.00, 0.000, 0.000, 0.000, 10:37:55.817
67, 38.77, 7.44, 0.00, 0.00, 0.000, 0.000, 0.000, 10:37:55.831
68, 44.03, 16.56, 0.00, 0.00, 0.000, 0.000, 0.000, 10:37:55.831
69, 39.60, 10.65, 0.00, 0.00, 0.000, 0.000, 0.000, 10:37:55.846
70, 41.90, 7.29, 0.00, 0.00, 0.000, 0.000, 0.000, 10:37:55.846
71, 37.65, 9.41, 0.00, 0.00, 0.000, 0.000, 0.000, 10:37:55.848
72, 39.93, 14.05, 0.00, 0.00, 0.000, 0.000, 0.000, 10:37:55.848
73, 40.80, 11.95, 0.00, 0.00, 0.000, 0.000, 0.000, 10:37:55.861
74, 36.98, 4.55, 0.00, 0.00, 0.000, 0.000, 0.000, 10:37:55.862
75, 37.34, 8.34, 0.00, 0.00, 0.000, 0.000, 0.000, 10:37:55.878
76, 43.01, 13.36, 0.00, 0.00, 0.000, 0.000, 0.000, 10:37:55.878
77, 43.13, 11.46, 0.00, 0.00, 0.000, 0.000, 0.000, 10:37:55.879
78, 38.85, 5.69, 0.00, 0.00, 0.000, 0.000, 0.000, 10:37:55.880
79, 38.82, 8.20, 0.00, 0.00, 0.000, 0.000, 0.000, 10:37:55.891
80, 40.22, 11.86, 0.00, 0.00, 0.000, 0.000, 0.000, 10:37:55.891
81, 42.49, 10.42, 0.00, 0.00, 0.000, 0.000, 0.000, 10:37:55.920
82, 40.84, 7.56, 0.00, 0.00, 0.000, 0.000, 0.000, 10:37:55.920
83, 37.45, 6.28, 0.00, 0.00, 0.000, 0.000, 0.000, 10:37:55.920
84, 42.73, 12.26, 0.00, 0.00, 0.000, 0.000, 0.000, 10:37:55.920
85, 42.36, 15.10, 0.00, 0.00, 0.000, 0.000, 0.000, 10:37:55.921
86, 35.61, 7.92, 0.00, 0.00, 0.000, 0.000, 0.000, 10:37:55.921
87, 39.86, 10.33, 0.00, 0.00, 0.000, 0.000, 0.000, 10:37:55.922
88, 41.64, 8.85, 0.00, 0.00, 0.000, 0.000, 0.000, 10:37:55.922
89, 38.78, 13.78, 0.00, 0.00, 0.000, 0.000, 0.000, 10:37:55.935
90, 43.79, 3.16, 0.00, 0.00, 0.000, 0.000, 0.000, 10:37:55.936
91, 42.56, 6.60, 0.00, 0.00, 0.000, 0.000, 0.000, 10:37:55.951
92, 43.91, 14.48, 0.00, 0.00, 0.000, 0.000, 0.000, 10:37:55.952
93, 44.45, 7.52, 0.00, 0.00, 0.000, 0.000, 0.000, 10:37:55.966
94, 42.27, 8.22, 0.00, 0.00, 0.000, 0.000, 0.000, 10:37:55.966
95, 40.27, 11.60, 0.00, 0.00, 0.000, 0.000, 0.000, 10:37:55.966
96, 41.30, 8.27, 0.00, 0.00, 0.000, 0.000, 0.000, 10:37:55.966
97, 40.80, 11.29, 0.00, 0.00, 0.000, 0.000, 0.000, 10:37:55.981
98, 39.99, 7.60, 0.00, 0.00, 0.000, 0.000, 0.000, 10:37:55.981
99, 39.99, 5.09, 0.00, 0.00, 0.000, 0.000, 0.000, 10:37:55.997
100, 40.66, 8.27, 0.00, 0.00, 0.000, 0.000, 0.000, 10:37:55.997
101, 42.20, 7.77, 0.00, 0.00, 0.000, 0.000, 0.000, 10:37:55.997
102, 39.87, 6.02, 0.00, 0.00, 0.000, 0.000, 0.000, 10:37:55.997
103, 40.97, 3.86, 0.00, 0.00, 0.000, 0.000, 0.000, 10:37:56.018
104, 46.86, 11.20, 0.00, 0.00, 0.000, 0.000, 0.000, 10:37:56.018
105, 44.00, 9.11, 0.00, 0.00, 0.000, 0.000, 0.000, 10:37:56.026
106, 45.30, 7.60, 0.00, 0.00, 0.000, 0.000, 0.000, 10:37:56.026
107, 36.32, 11.30, 0.00, 0.00, 0.000, 0.000, 0.000, 10:37:56.027
108, 41.51, 8.29, 0.00, 0.00, 0.000, 0.000, 0.000, 10:37:56.027
109, 42.35, 10.41, 0.00, 0.00, 0.000, 0.000, 0.000, 10:37:56.041
110, 37.73, 9.68, 0.00, 0.00, 0.000, 0.000, 0.000, 10:37:56.041
111, 37.07, 4.94, 0.00, 0.00, 0.000, 0.000, 0.000, 10:37:56.058
112, 40.53, 9.80, 0.00, 0.00, 0.000, 0.000, 0.000, 10:37:56.058
113, 39.26, 8.73, 0.00, 0.00, 0.000, 0.000, 0.000, 10:37:56.058
114, 36.40, 6.33, 0.00, 0.00, 0.000, 0.000, 0.000, 10:37:56.059
115, 39.20, 10.49, 0.00, 0.00, 0.000, 0.000, 0.000, 10:37:56.071
116, 41.95, 8.65, 0.00, 0.00, 0.000, 0.000, 0.000, 10:37:56.072
117, 41.02, 7.63, 0.00, 0.00, 0.000, 0.000, 0.000, 10:37:56.087
118, 39.70, 5.97, 0.00, 0.00, 0.000, 0.000, 0.000, 10:37:56.087
119, 42.18, 2.63, 0.00, 0.00, 0.000, 0.000, 0.000, 10:37:56.088
120, 42.59, 4.55, 0.00, 0.00, 0.000, 0.000, 0.000, 10:37:56.088
121, 44.01, 7.85, 0.00, 0.00, 0.000, 0.000, 0.000, 10:37:56.104
122, 44.98, 5.18, 0.00, 0.00, 0.000, 0.000, 0.000, 10:37:56.105
123, 42.57, 3.72, 0.00, 0.00, 0.000, 0.000, 0.000, 10:37:56.116
124, 46.66, 7.90, 0.00, 0.00, 0.000, 0.000, 0.000, 10:37:56.116
125, 49.67, 5.99, 0.00, 0.00, 0.000, 0.000, 0.000, 10:37:56.117
126, 47.15, 5.49, 0.00, 0.00, 0.000, 0.000, 0.000, 10:37:56.117
127, 47.64, 6.36, 0.00, 0.00, 0.000, 0.000, 0.000, 10:37:56.131
128, 49.89, 15.42, 0.00, 0.00, 0.000, 0.000, 0.000, 10:37:56.132
129, 48.90, 3.51, 0.00, 0.00, 0.000, 0.000, 0.000, 10:37:56.147
130, 45.80, 7.11, 0.00, 0.00, 0.000, 0.000, 0.000, 10:37:56.148
131, 44.22, 6.80, 0.00, 0.00, 0.000, 0.000, 0.000, 10:37:56.150
132, 45.75, 7.30, 0.00, 0.00, 0.000, 0.000, 0.000, 10:37:56.151
133, 44.93, 7.57, 0.00, 0.00, 0.000, 0.000, 0.000, 10:37:56.161
134, 43.36, 6.99, 0.00, 0.00, 0.000, 0.000, 0.000, 10:37:56.161
135, 39.79, 8.50, 0.00, 0.00, 0.000, 0.000, 0.000, 10:37:56.176
136, 43.78, 11.86, 0.00, 0.00, 0.000, 0.000, 0.000, 10:37:56.176
137, 40.50, 10.09, 0.00, 0.00, 0.000, 0.000, 0.000, 10:37:56.177
138, 43.54, 7.31, 0.00, 0.00, 0.000, 0.000, 0.000, 10:37:56.177
139, 41.01, 7.12, 0.00, 0.00, 0.000, 0.000, 0.000, 10:37:56.191
140, 44.94, 11.24, 0.00, 0.00, 0.000, 0.000, 0.000, 10:37:56.191
141, 43.89, 7.92, 0.00, 0.00, 0.000, 0.000, 0.000, 10:37:56.206
142, 41.80, 9.24, 0.00, 0.00, 0.000, 0.000, 0.000, 10:37:56.206
143, 43.14, 7.35, 0.00, 0.00, 0.000, 0.000, 0.000, 10:37:56.206
144, 45.12, 8.69, 0.00, 0.00, 0.000, 0.000, 0.000, 10:37:56.206
145, 45.11, 4.11, 0.00, 0.00, 0.000, 0.000, 0.000, 10:37:56.220
146, 45.59, 9.95, 0.00, 0.00, 0.000, 0.000, 0.000, 10:37:56.221
147, 40.79, 5.96, 0.00, 0.00, 0.000, 0.000, 0.000, 10:37:56.235
148, 42.97, 8.91, 0.00, 0.00, 0.000, 0.000, 0.000, 10:37:56.236
149, 44.01, 8.34, 0.00, 0.00, 0.000, 0.000, 0.000, 10:37:56.236
150, 40.05, 8.24, 0.00, 0.00, 0.000, 0.000, 0.000, 10:37:56.236
151, 40.36, 9.37, 0.00, 0.00, 0.000, 0.000, 0.000, 10:37:56.251
152, 43.38, 14.92, 0.00, 0.00, 0.000, 0.000, 0.000, 10:37:56.251
153, 43.85, 9.40, 0.00, 0.00, 0.000, 0.000, 0.000, 10:37:56.265
154, 38.56, 7.79, 0.00, 0.00, 0.000, 0.000, 0.000, 10:37:56.266
155, 39.10, 13.21, 0.00, 0.00, 0.000, 0.000, 0.000, 10:37:56.266
156, 40.10, 15.73, 0.00, 0.00, 0.000, 0.000, 0.000, 10:37:56.266
157, 42.26, 9.74, 0.00, 0.00, 0.000, 0.000, 0.000, 10:37:56.281
158, 41.29, 8.85, 0.00, 0.00, 0.000, 0.000, 0.000, 10:37:56.282
159, 38.93, 9.47, 0.00, 0.00, 0.000, 0.000, 0.000, 10:37:56.296
160, 42.53, 11.66, 0.00, 0.00, 0.000, 0.000, 0.000, 10:37:56.296
161, 40.41, 9.52, 0.00, 0.00, 0.000, 0.000, 0.000, 10:37:56.297
162, 41.95, 9.07, 0.00, 0.00, 0.000, 0.000, 0.000, 10:37:56.297
163, 39.54, 10.14, 0.00, 0.00, 0.000, 0.000, 0.000, 10:37:56.311
164, 42.02, 14.69, 0.00, 0.00, 0.000, 0.000, 0.000, 10:37:56.311
165, 44.87, 8.98, 0.00, 0.00, 0.000, 0.000, 0.000, 10:37:56.325
166, 39.57, 7.84, 0.00, 0.00, 0.000, 0.000, 0.000, 10:37:56.326
167, 38.69, 10.88, 0.00, 0.00, 0.000, 0.000, 0.000, 10:37:56.326
168, 40.06, 8.70, 0.00, 0.00, 0.000, 0.000, 0.000, 10:37:56.326
169, 40.68, 8.69, 0.00, 0.00, 0.000, 0.000, 0.000, 10:37:56.340
170, 41.66, 9.58, 0.00, 0.00, 0.000, 0.000, 0.000, 10:37:56.341
171, 39.86, 9.08, 0.00, 0.00, 0.000, 0.000, 0.000, 10:37:56.355
172, 43.57, 7.72, 0.00, 0.00, 0.000, 0.000, 0.000, 10:37:56.355
173, 40.74, 10.24, 0.00, 0.00, 0.000, 0.000, 0.000, 10:37:56.356
174, 39.49, 4.08, 0.00, 0.00, 0.000, 0.000, 0.000, 10:37:56.356
175, 40.80, 8.98, 0.00, 0.00, 0.000, 0.000, 0.000, 10:37:56.371
176, 42.79, 10.00, 0.00, 0.00, 0.000, 0.000, 0.000, 10:37:56.371
177, 45.08, 7.76, 0.00, 0.00, 0.000, 0.000, 0.000, 10:37:56.401
178, 43.15, 6.77, 0.00, 0.00, 0.000, 0.000, 0.000, 10:37:56.401
179, 39.95, 10.11, 0.00, 0.00, 0.000, 0.000, 0.000, 10:37:56.402
180, 39.80, 11.52, 0.00, 0.00, 0.000, 0.000, 0.000, 10:37:56.402
181, 39.20, 9.15, 0.00, 0.00, 0.000, 0.000, 0.000, 10:37:56.402
182, 33.94, 6.98, 0.00, 0.00, 0.000, 0.000, 0.000, 10:37:56.403
183, 33.76, 5.76, 0.00, 0.00, 0.000, 0.000, 0.000, 10:37:56.403
184, 33.72, 8.05, 0.00, 0.00, 0.000, 0.000, 0.000, 10:37:56.403
185, 35.22, 10.34, 0.00, 0.00, 0.000, 0.000, 0.000, 10:37:56.419
186, 35.47, 3.58, 0.00, 0.00, 0.000, 0.000, 0.000, 10:37:56.420
187, 34.72, 5.87, 0.00, 0.00, 0.000, 0.000, 0.000, 10:37:56.438
188, 37.89, 11.95, 0.00, 0.00, 0.000, 0.000, 0.000, 10:37:56.438
189, 37.37, 7.06, 0.00, 0.00, 0.000, 0.000, 0.000, 10:37:56.446
190, 36.61, 3.90, 0.00, 0.00, 0.000, 0.000, 0.000, 10:37:56.447
191, 42.07, 9.13, 0.00, 0.00, 0.000, 0.000, 0.000, 10:37:56.447
192, 43.37, 7.22, 0.00, 0.00, 0.000, 0.000, 0.000, 10:37:56.447
193, 41.14, 8.81, 0.00, 0.00, 0.000, 0.000, 0.000, 10:37:56.461
194, 38.29, 6.89, 0.00, 0.00, 0.000, 0.000, 0.000, 10:37:56.461
195, 39.66, 9.89, 0.00, 0.00, 0.000, 0.000, 0.000, 10:37:56.476
196, 39.97, 7.58, 0.00, 0.00, 0.000, 0.000, 0.000, 10:37:56.476
197, 38.03, 10.51, 0.00, 0.00, 0.000, 0.000, 0.000, 10:37:56.477
198, 35.43, 9.32, 0.00, 0.00, 0.000, 0.000, 0.000, 10:37:56.477
199, 37.78, 8.15, 0.00, 0.00, 0.000, 0.000, 0.000, 10:37:56.491
200, 42.66, 10.51, 0.00, 0.00, 0.000, 0.000, 0.000, 10:37:56.492
0, 41.47, 5.53, 0.00, 0.00, 0.000, 0.000, 0.000, 10:37:56.493
1, 38.73, 4.50, 0.00, 0.00, 0.000, 0.000, 0.000, 10:37:56.507
2, 35.64, 8.05, 0.00, 0.00, 0.000, 0.000, 0.000, 10:37:56.508
3, 39.43, 9.21, 0.00, 0.00, 0.000, 0.000, 0.000, 10:37:56.522
4, 42.77, 7.07, 0.00, 0.00, 0.000, 0.000, 0.000, 10:37:56.522
5, 40.77, 9.77, 0.00, 0.00, 0.000, 0.000, 0.000, 10:37:56.522
6, 39.20, 6.37, 0.00, 0.00, 0.000, 0.000, 0.000, 10:37:56.523
7, 43.18, 7.92, 0.00, 0.00, 0.000, 0.000, 0.000, 10:37:56.536
8, 45.95, 8.10, 0.00, 0.00, 0.000, 0.000, 0.000, 10:37:56.536
9, 42.33, 8.64, 0.00, 0.00, 0.000, 0.000, 0.000, 10:37:56.551
10, 43.78, 8.95, 0.00, 0.00, 0.000, 0.000, 0.000, 10:37:56.551
11, 43.11, 6.85, 0.00, 0.00, 0.000, 0.000, 0.000, 10:37:56.551
12, 40.97, 7.15, 0.00, 0.00, 0.000, 0.000, 0.000, 10:37:56.551
13, 42.06, 8.43, 0.00, 0.00, 0.000, 0.000, 0.000, 10:37:56.565
14, 38.56, 9.75, 0.00, 0.00, 0.000, 0.000, 0.000, 10:37:56.566
15, 41.77, 6.57, 0.00, 0.00, 0.000, 0.000, 0.000, 10:37:56.581
16, 42.35, 4.44, 0.00, 0.00, 0.000, 0.000, 0.000, 10:37:56.581
17, 41.74, 3.73, 0.00, 0.00, 0.000, 0.000, 0.000, 10:37:56.582
18, 45.53, 9.03, 0.00, 0.00, 0.000, 0.000, 0.000, 10:37:56.582
19, 50.14, 8.65, 0.00, 0.00, 0.000, 0.000, 0.000, 10:37:56.596
20, 45.00, 7.78, 0.00, 0.00, 0.000, 0.000, 0.000, 10:37:56.597
21, 42.32, 6.23, 0.00, 0.00, 0.000, 0.000, 0.000, 10:37:56.612
22, 42.27, 6.45, 0.00, 0.00, 0.000, 0.000, 0.000, 10:37:56.612
23, 46.67, 8.99, 0.00, 0.00, 0.000, 0.000, 0.000, 10:37:56.613
24, 46.27, 6.95, 0.00, 0.00, 0.000, 0.000, 0.000, 10:37:56.613
25, 43.60, 6.83, 0.00, 0.00, 0.000, 0.000, 0.000, 10:37:56.627
26, 42.41, 10.94, 0.00, 0.00, 0.000, 0.000, 0.000, 10:37:56.627
27, 42.76, 10.81, 0.00, 0.00, 0.000, 0.000, 0.000, 10:37:56.642
28, 44.21, 10.18, 0.00, 0.00, 0.000, 0.000, 0.000, 10:37:56.642
29, 41.77, 8.56, 0.00, 0.00, 0.000, 0.000, 0.000, 10:37:56.643
30, 42.26, 10.30, 0.00, 0.00, 0.000, 0.000, 0.000, 10:37:56.643
31, 43.59, 10.06, 0.00, 0.00, 0.000, 0.000, 0.000, 10:37:56.658
32, 41.84, 8.65, 0.00, 0.00, 0.000, 0.000, 0.000, 10:37:56.659
33, 40.77, 4.42, 0.00, 0.00, 0.000, 0.000, 0.000, 10:37:56.673
34, 36.76, 7.27, 0.00, 0.00, 0.000, 0.000, 0.000, 10:37:56.673
35, 41.13, 7.16, 0.00, 0.00, 0.000, 0.000, 0.000, 10:37:56.674
36, 41.71, 8.82, 0.00, 0.00, 0.000, 0.000, 0.000, 10:37:56.674
37, 40.54, 8.09, 0.00, 0.00, 0.000, 0.000, 0.000, 10:37:56.686
38, 38.95, 9.80, 0.00, 0.00, 0.000, 0.000, 0.000, 10:37:56.687
39, 38.38, 8.10, 0.00, 0.00, 0.000, 0.000, 0.000, 10:37:56.703
40, 38.23, 9.62, 0.00, 0.00, 0.000, 0.000, 0.000, 10:37:56.704
41, 37.37, 10.18, 0.00, 0.00, 0.000, 0.000, 0.000, 10:37:56.705
42, 34.25, 9.21, 0.00, 0.00, 0.000, 0.000, 0.000, 10:37:56.705
43, 41.25, 9.61, 0.00, 0.00, 0.000, 0.000, 0.000, 10:37:56.717
44, 41.74, 10.40, 0.00, 0.00, 0.000, 0.000, 0.000, 10:37:56.718
45, 36.15, 7.72, 0.00, 0.00, 0.000, 0.000, 0.000, 10:37:56.732
46, 39.85, 5.78, 0.00, 0.00, 0.000, 0.000, 0.000, 10:37:56.732
47, 38.34, 10.82, 0.00, 0.00, 0.000, 0.000, 0.000, 10:37:56.733
48, 38.28, 8.58, 0.00, 0.00, 0.000, 0.000, 0.000, 10:37:56.733
49, 36.33, 6.00, 0.00, 0.00, 0.000, 0.000, 0.000, 10:37:56.754
50, 38.35, 1.63, 0.00, 0.00, 0.000, 0.000, 0.000, 10:37:56.754
51, 42.43, 7.24, 0.00, 0.00, 0.000, 0.000, 0.000, 10:37:56.764
52, 40.93, 6.66, 0.00, 0.00, 0.000, 0.000, 0.000, 10:37:56.764
53, 41.55, 4.89, 0.00, 0.00, 0.000, 0.000, 0.000, 10:37:56.765
54, 41.69, 9.10, 0.00, 0.00, 0.000, 0.000, 0.000, 10:37:56.765
55, 45.71, 8.83, 0.00, 0.00, 0.000, 0.000, 0.000, 10:37:56.777
56, 42.71, 9.43, 0.00, 0.00, 0.000, 0.000, 0.000, 10:37:56.777
57, 45.90, 5.61, 0.00, 0.00, 0.000, 0.000, 0.000, 10:37:56.791
58, 41.09, 4.60, 0.00, 0.00, 0.000, 0.000, 0.000, 10:37:56.792
59, 46.62, 6.81, 0.00, 0.00, 0.000, 0.000, 0.000, 10:37:56.798
60, 46.87, 5.47, 0.00, 0.00, 0.000, 0.000, 0.000, 10:37:56.798
61, 45.36, 2.66, 0.00, 0.00, 0.000, 0.000, 0.000, 10:37:56.807
62, 43.18, 5.59, 0.00, 0.00, 0.000, 0.000, 0.000, 10:37:56.807
63, 45.05, 8.99, 0.00, 0.00, 0.000, 0.000, 0.000, 10:37:56.822
64, 46.65, 9.85, 0.00, 0.00, 0.000, 0.000, 0.000, 10:37:56.822
65, 45.11, 7.12, 0.00, 0.00, 0.000, 0.000, 0.000, 10:37:56.823
66, 42.29, 9.35, 0.00, 0.00, 0.000, 0.000, 0.000, 10:37:56.823
67, 48.26, 6.55, 0.00, 0.00, 0.000, 0.000, 0.000, 10:37:56.836
68, 47.18, 8.04, 0.00, 0.00, 0.000, 0.000, 0.000, 10:37:56.837
69, 46.01, 2.66, 0.00, 0.00, 0.000, 0.000, 0.000, 10:37:56.851
70, 43.37, 6.00, 0.00, 0.00, 0.000, 0.000, 0.000, 10:37:56.852
71, 44.72, 9.70, 0.00, 0.00, 0.000, 0.000, 0.000, 10:37:56.852
72, 44.55, 7.12, 0.00, 0.00, 0.000, 0.000, 0.000, 10:37:56.853
73, 43.03, 3.29, 0.00, 0.00, 0.000, 0.000, 0.000, 10:37:56.866
74, 43.76, 9.39, 0.00, 0.00, 0.000, 0.000, 0.000, 10:37:56.867
75, 40.70, 8.49, 0.00, 0.00, 0.000, 0.000, 0.000, 10:37:56.884
76, 46.52, 9.09, 0.00, 0.00, 0.000, 0.000, 0.000, 10:37:56.884
77, 41.01, 7.73, 0.00, 0.00, 0.000, 0.000, 0.000, 10:37:56.885
78, 40.90, 7.58, 0.00, 0.00, 0.000, 0.000, 0.000, 10:37:56.885
79, 40.55, 11.24, 0.00, 0.00, 0.000, 0.000, 0.000, 10:37:56.896
80, 40.03, 9.96, 0.00, 0.00, 0.000, 0.000, 0.000, 10:37:56.897
81, 39.50, 3.95, 0.00, 0.00, 0.000, 0.000, 0.000, 10:37:56.935
82, 37.28, 7.03, 0.00, 0.00, 0.000, 0.000, 0.000, 10:37:56.936
83, 38.28, 7.35, 0.00, 0.00, 0.000, 0.000, 0.000, 10:37:56.936
84, 39.88, 4.02, 0.00, 0.00, 0.000, 0.000, 0.000, 10:37:56.937
85, 35.92, 5.45, 0.00, 0.00, 0.000, 0.000, 0.000, 10:37:56.975
86, 36.91, 6.56, 0.00, 0.00, 0.000, 0.000, 0.000, 10:37:56.976
87, 39.96, 10.51, 0.00, 0.00, 0.000, 0.000, 0.000, 10:37:56.977
88, 43.09, 3.55, 0.00, 0.00, 0.000, 0.000, 0.000, 10:37:56.978
89, 42.42, 5.90, 0.00, 0.00, 0.000, 0.000, 0.000, 10:37:56.979
90, 42.95, 10.46, 0.00, 0.00, 0.000, 0.000, 0.000, 10:37:56.979
91, 44.51, 6.88, 0.00, 0.00, 0.000, 0.000, 0.000, 10:37:56.979
92, 45.51, 6.09, 0.00, 0.00, 0.000, 0.000, 0.000, 10:37:56.980
93, 37.64, 5.94, 0.00, 0.00, 0.000, 0.000, 0.000, 10:37:56.985
94, 39.46, 6.75, 0.00, 0.00, 0.000, 0.000, 0.000, 10:37:56.986
95, 37.72, 6.76, 0.00, 0.00, 0.000, 0.000, 0.000, 10:37:56.987
96, 40.47, 11.16, 0.00, 0.00, 0.000, 0.000, 0.000, 10:37:56.987
97, 36.97, 6.27, 0.00, 0.00, 0.000, 0.000, 0.000, 10:37:56.988
98, 35.16, 0.81, 0.00, 0.00, 0.000, 0.000, 0.000, 10:37:56.988
99, 38.97, 7.44, 0.00, 0.00, 0.000, 0.000, 0.000, 10:37:57.001
100, 41.69, 6.95, 0.00, 0.00, 0.000, 0.000, 0.000, 10:37:57.002
101, 37.08, 4.58, 0.00, 0.00, 0.000, 0.000, 0.000, 10:37:57.002
102, 33.42, 5.74, 0.00, 0.00, 0.000, 0.000, 0.000, 10:37:57.003
103, 41.24, 7.78, 0.00, 0.00, 0.000, 0.000, 0.000, 10:37:57.020
104, 39.47, 7.34, 0.00, 0.00, 0.000, 0.000, 0.000, 10:37:57.021
105, 40.88, 6.86, 0.00, 0.00, 0.000, 0.000, 0.000, 10:37:57.031
106, 41.51, 2.01, 0.00, 0.00, 0.000, 0.000, 0.000, 10:37:57.032
107, 41.61, 3.34, 0.00, 0.00, 0.000, 0.000, 0.000, 10:37:57.032
108, 42.50, 4.76, 0.00, 0.00, 0.000, 0.000, 0.000, 10:37:57.032
109, 42.66, 6.33, 0.00, 0.00, 0.000, 0.000, 0.000, 10:37:57.046
110, 44.12, 7.80, 0.00, 0.00, 0.000, 0.000, 0.000, 10:37:57.046
111, 45.76, 10.28, 0.00, 0.00, 0.000, 0.000, 0.000, 10:37:57.061
112, 50.73, 6.06, 0.00, 0.00, 0.000, 0.000, 0.000, 10:37:57.061
113, 43.43, 4.33, 0.00, 0.00, 0.000, 0.000, 0.000, 10:37:57.068
114, 44.66, 6.96, 0.00, 0.00, 0.000, 0.000, 0.000, 10:37:57.068
115, 46.95, 5.59, 0.00, 0.00, 0.000, 0.000, 0.000, 10:37:57.075
116, 46.54, 11.31, 0.00, 0.00, 0.000, 0.000, 0.000, 10:37:57.076
117, 42.09, 9.07, 0.00, 0.00, 0.000, 0.000, 0.000, 10:37:57.091
118, 42.56, 11.51, 0.00, 0.00, 0.000, 0.000, 0.000, 10:37:57.092
119, 48.47, 8.40, 0.00, 0.00, 0.000, 0.000, 0.000, 10:37:57.092
120, 46.88, 10.43, 0.00, 0.00, 0.000, 0.000, 0.000, 10:37:57.092
121, 44.68, 7.14, 0.00, 0.00, 0.000, 0.000, 0.000, 10:37:57.105
122, 47.14, 8.87, 0.00, 0.00, 0.000, 0.000, 0.000, 10:37:57.106
123, 47.90, 8.70, 0.00, 0.00, 0.000, 0.000, 0.000, 10:37:57.121
124, 48.92, 10.16, 0.00, 0.00, 0.000, 0.000, 0.000, 10:37:57.121
125, 46.93, 10.09, 0.00, 0.00, 0.000, 0.000, 0.000, 10:37:57.121
126, 47.23, 8.46, 0.00, 0.00, 0.000, 0.000, 0.000, 10:37:57.121
127, 46.67, 11.69, 0.00, 0.00, 0.000, 0.000, 0.000, 10:37:57.135
128, 51.46, 12.61, 0.00, 0.00, 0.000, 0.000, 0.000, 10:37:57.136
129, 50.86, 6.23, 0.00, 0.00, 0.000, 0.000, 0.000, 10:37:57.151
130, 50.21, 8.80, 0.00, 0.00, 0.000, 0.000, 0.000, 10:37:57.151
131, 48.43, 10.87, 0.00, 0.00, 0.000, 0.000, 0.000, 10:37:57.151
132, 50.05, 11.20, 0.00, 0.00, 0.000, 0.000, 0.000, 10:37:57.152
133, 48.56, 6.36, 0.00, 0.00, 0.000, 0.000, 0.000, 10:37:57.165
134, 46.26, 11.39, 0.00, 0.00, 0.000, 0.000, 0.000, 10:37:57.166
135, 49.76, 13.19, 0.00, 0.00, 0.000, 0.000, 0.000, 10:37:57.180
136, 48.99, 9.10, 0.00, 0.00, 0.000, 0.000, 0.000, 10:37:57.181
137, 46.89, 6.51, 0.00, 0.00, 0.000, 0.000, 0.000, 10:37:57.181
138, 47.01, 4.44, 0.00, 0.00, 0.000, 0.000, 0.000, 10:37:57.182
139, 49.42, 10.43, 0.00, 0.00, 0.000, 0.000, 0.000, 10:37:57.196
140, 53.05, 9.66, 0.00, 0.00, 0.000, 0.000, 0.000, 10:37:57.196
141, 51.05, 8.53, 0.00, 0.00, 0.000, 0.000, 0.000, 10:37:57.211
142, 49.46, 7.68, 0.00, 0.00, 0.000, 0.000, 0.000, 10:37:57.211
143, 51.07, 11.39, 0.00, 0.00, 0.000, 0.000, 0.000, 10:37:57.212
144, 51.26, 12.56, 0.00, 0.00, 0.000, 0.000, 0.000, 10:37:57.212
145, 46.43, 7.42, 0.00, 0.00, 0.000, 0.000, 0.000, 10:37:57.227
146, 51.48, 5.90, 0.00, 0.00, 0.000, 0.000, 0.000, 10:37:57.227
147, 51.57, 10.95, 0.00, 0.00, 0.000, 0.000, 0.000, 10:37:57.243
148, 48.70, 5.75, 0.00, 0.00, 0.000, 0.000, 0.000, 10:37:57.243
149, 43.00, 5.29, 0.00, 0.00, 0.000, 0.000, 0.000, 10:37:57.256
150, 46.95, 5.85, 0.00, 0.00, 0.000, 0.000, 0.000, 10:37:57.256
151, 49.44, 9.80, 0.00, 0.00, 0.000, 0.000, 0.000, 10:37:57.272
152, 43.63, 10.76, 0.00, 0.00, 0.000, 0.000, 0.000, 10:37:57.273
153, 39.42, 7.37, 0.00, 0.00, 0.000, 0.000, 0.000, 10:37:57.273
154, 42.15, 8.47, 0.00, 0.00, 0.000, 0.000, 0.000, 10:37:57.273
155, 39.81, 13.97, 0.00, 0.00, 0.000, 0.000, 0.000, 10:37:57.274
156, 42.60, 8.64, 0.00, 0.00, 0.000, 0.000, 0.000, 10:37:57.274
157, 42.52, 7.33, 0.00, 0.00, 0.000, 0.000, 0.000, 10:37:57.286
158, 40.20, 10.76, 0.00, 0.00, 0.000, 0.000, 0.000, 10:37:57.287
159, 44.13, 11.81, 0.00, 0.00, 0.000, 0.000, 0.000, 10:37:57.301
160, 45.59, 7.60, 0.00, 0.00, 0.000, 0.000, 0.000, 10:37:57.302
161, 42.57, 3.40, 0.00, 0.00, 0.000, 0.000, 0.000, 10:37:57.302
162, 44.36, 4.69, 0.00, 0.00, 0.000, 0.000, 0.000, 10:37:57.302
163, 47.04, 6.86, 0.00, 0.00, 0.000, 0.000, 0.000, 10:37:57.331
164, 45.65, 10.07, 0.00, 0.00, 0.000, 0.000, 0.000, 10:37:57.331
165, 40.93, 5.99, 0.00, 0.00, 0.000, 0.000, 0.000, 10:37:57.332
166, 41.97, 6.72, 0.00, 0.00, 0.000, 0.000, 0.000, 10:37:57.332
167, 43.93, 10.80, 0.00, 0.00, 0.000, 0.000, 0.000, 10:37:57.332
168, 45.80, 10.35, 0.00, 0.00, 0.000, 0.000, 0.000, 10:37:57.332
169, 44.28, 7.19, 0.00, 0.00, 0.000, 0.000, 0.000, 10:37:57.346
170, 40.03, 13.85, 0.00, 0.00, 0.000, 0.000, 0.000, 10:37:57.347
171, 44.40, 9.84, 0.00, 0.00, 0.000, 0.000, 0.000, 10:37:57.361
172, 45.06, 4.11, 0.00, 0.00, 0.000, 0.000, 0.000, 10:37:57.361
173, 40.33, 8.62, 0.00, 0.00, 0.000, 0.000, 0.000, 10:37:57.362
174, 45.09, 7.31, 0.00, 0.00, 0.000, 0.000, 0.000, 10:37:57.362
175, 47.92, 11.55, 0.00, 0.00, 0.000, 0.000, 0.000, 10:37:57.376
176, 43.95, 9.07, 0.00, 0.00, 0.000, 0.000, 0.000, 10:37:57.377
177, 39.23, 10.36, 0.00, 0.00, 0.000, 0.000, 0.000, 10:37:57.391
178, 46.70, 8.32, 0.00, 0.00, 0.000, 0.000, 0.000, 10:37:57.391
179, 44.30, 10.08, 0.00, 0.00, 0.000, 0.000, 0.000, 10:37:57.392
180, 43.58, 11.16, 0.00, 0.00, 0.000, 0.000, 0.000, 10:37:57.392
181, 42.63, 6.88, 0.00, 0.00, 0.000, 0.000, 0.000, 10:37:57.413
182, 38.30, 8.65, 0.00, 0.00, 0.000, 0.000, 0.000, 10:37:57.414
183, 38.74, 14.29, 0.00, 0.00, 0.000, 0.000, 0.000, 10:37:57.421
184, 37.69, 10.66, 0.00, 0.00, 0.000, 0.000, 0.000, 10:37:57.421
185, 33.25, 5.85, 0.00, 0.00, 0.000, 0.000, 0.000, 10:37:57.421
186, 33.23, 8.73, 0.00, 0.00, 0.000, 0.000, 0.000, 10:37:57.421
187, 39.09, 10.06, 0.00, 0.00, 0.000, 0.000, 0.000, 10:37:57.436
188, 40.24, 11.92, 0.00, 0.00, 0.000, 0.000, 0.000, 10:37:57.436
189, 38.58, 8.41, 0.00, 0.00, 0.000, 0.000, 0.000, 10:37:57.451
190, 38.64, 9.27, 0.00, 0.00, 0.000, 0.000, 0.000, 10:37:57.451
191, 38.50, 10.30, 0.00, 0.00, 0.000, 0.000, 0.000, 10:37:57.453
192, 39.04, 9.05, 0.00, 0.00, 0.000, 0.000, 0.000, 10:37:57.454
193, 39.81, 5.89, 0.00, 0.00, 0.000, 0.000, 0.000, 10:37:57.466
194, 38.35, 9.04, 0.00, 0.00, 0.000, 0.000, 0.000, 10:37:57.466
195, 43.15, 4.65, 0.00, 0.00, 0.000, 0.000, 0.000, 10:37:57.481
196, 44.44, 7.02, 0.00, 0.00, 0.000, 0.000, 0.000, 10:37:57.481
197, 46.63, 4.98, 0.00, 0.00, 0.000, 0.000, 0.000, 10:37:57.482
198, 44.93, 7.01, 0.00, 0.00, 0.000, 0.000, 0.000, 10:37:57.482
199, 45.31, 5.85, 0.00, 0.00, 0.000, 0.000, 0.000, 10:37:57.496
200, 45.64, 11.22, 0.00, 0.00, 0.000, 0.000, 0.000, 10:37:57.496
0, 45.62, 4.78, 0.00, 0.00, 0.000, 0.000, 0.000, 10:37:57.496
1, 44.05, 3.92, 0.00, 0.00, 0.000, 0.000, 0.000, 10:37:57.511
2, 49.70, 10.87, 0.00, 0.00, 0.000, 0.000, 0.000, 10:37:57.511
3, 47.06, 8.21, 0.00, 0.00, 0.000, 0.000, 0.000, 10:37:57.526
4, 40.66, 3.93, 0.00, 0.00, 0.000, 0.000, 0.000, 10:37:57.526
5, 39.00, 8.38, 0.00, 0.00, 0.000, 0.000, 0.000, 10:37:57.526
6, 42.69, 8.87, 0.00, 0.00, 0.000, 0.000, 0.000, 10:37:57.527
7, 42.43, 9.22, 0.00, 0.00, 0.000, 0.000, 0.000, 10:37:57.540
8, 41.08, 9.37, 0.00, 0.00, 0.000, 0.000, 0.000, 10:37:57.541
9, 42.43, 10.80, 0.00, 0.00, 0.000, 0.000, 0.000, 10:37:57.556
10, 44.17, 7.83, 0.00, 0.00, 0.000, 0.000, 0.000, 10:37:57.556
11, 43.11, 11.25, 0.00, 0.00, 0.000, 0.000, 0.000, 10:37:57.556
12, 40.67, 6.01, 0.00, 0.00, 0.000, 0.000, 0.000, 10:37:57.556
13, 38.16, 6.05, 0.00, 0.00, 0.000, 0.000, 0.000, 10:37:57.570
14, 42.66, 7.19, 0.00, 0.00, 0.000, 0.000, 0.000, 10:37:57.570
15, 42.80, 7.30, 0.00, 0.00, 0.000, 0.000, 0.000, 10:37:57.585
16, 41.53, 8.52, 0.00, 0.00, 0.000, 0.000, 0.000, 10:37:57.585
17, 40.50, 9.42, 0.00, 0.00, 0.000, 0.000, 0.000, 10:37:57.586
18, 44.00, 5.11, 0.00, 0.00, 0.000, 0.000, 0.000, 10:37:57.586
19, 45.21, 5.63, 0.00, 0.00, 0.000, 0.000, 0.000, 10:37:57.600
20, 45.43, 3.42, 0.00, 0.00, 0.000, 0.000, 0.000, 10:37:57.600
21, 41.06, 4.95, 0.00, 0.00, 0.000, 0.000, 0.000, 10:37:57.616
22, 45.46, 4.48, 0.00, 0.00, 0.000, 0.000, 0.000, 10:37:57.616
23, 45.69, 9.47, 0.00, 0.00, 0.000, 0.000, 0.000, 10:37:57.616
24, 43.66, 4.81, 0.00, 0.00, 0.000, 0.000, 0.000, 10:37:57.616
25, 43.43, 4.85, 0.00, 0.00, 0.000, 0.000, 0.000, 10:37:57.631
26, 43.61, 6.79, 0.00, 0.00, 0.000, 0.000, 0.000, 10:37:57.632
27, 47.43, 3.79, 0.00, 0.00, 0.000, 0.000, 0.000, 10:37:57.646
28, 43.12, 3.70, 0.00, 0.00, 0.000, 0.000, 0.000, 10:37:57.647
29, 44.72, 5.45, 0.00, 0.00, 0.000, 0.000, 0.000, 10:37:57.647
30, 43.96, 8.47, 0.00, 0.00, 0.000, 0.000, 0.000, 10:37:57.647
31, 43.65, 9.85, 0.00, 0.00, 0.000, 0.000, 0.000, 10:37:57.661
32, 39.86, 5.85, 0.00, 0.00, 0.000, 0.000, 0.000, 10:37:57.662
33, 40.04, 7.88, 0.00, 0.00, 0.000, 0.000, 0.000, 10:37:57.676
34, 42.39, 10.19, 0.00, 0.00, 0.000, 0.000, 0.000, 10:37:57.676
35, 44.37, 11.57, 0.00, 0.00, 0.000, 0.000, 0.000, 10:37:57.677
36, 40.67, 8.10, 0.00, 0.00, 0.000, 0.000, 0.000, 10:37:57.677
37, 40.52, 7.00, 0.00, 0.00, 0.000, 0.000, 0.000, 10:37:57.691
38, 41.38, 8.83, 0.00, 0.00, 0.000, 0.000, 0.000, 10:37:57.692
39, 38.83, 7.29, 0.00, 0.00, 0.000, 0.000, 0.000, 10:37:57.706
40, 34.22, 4.08, 0.00, 0.00, 0.000, 0.000, 0.000, 10:37:57.706
41, 36.55, 8.82, 0.00, 0.00, 0.000, 0.000, 0.000, 10:37:57.706
42, 44.21, 6.74, 0.00, 0.00, 0.000, 0.000, 0.000, 10:37:57.706
43, 42.25, 7.13, 0.00, 0.00, 0.000, 0.000, 0.000, 10:37:57.721
44, 40.09, 4.69, 0.00, 0.00, 0.000, 0.000, 0.000, 10:37:57.721
45, 41.40, 6.19, 0.00, 0.00, 0.000, 0.000, 0.000, 10:37:57.736
46, 45.71, 5.97, 0.00, 0.00, 0.000, 0.000, 0.000, 10:37:57.736
47, 43.25, 8.22, 0.00, 0.00, 0.000, 0.000, 0.000, 10:37:57.736
48, 44.25, 5.32, 0.00, 0.00, 0.000, 0.000, 0.000, 10:37:57.736
49, 45.46, 8.33, 0.00, 0.00, 0.000, 0.000, 0.000, 10:37:57.751
50, 45.64, 9.23, 0.00, 0.00, 0.000, 0.000, 0.000, 10:37:57.751
51, 46.75, 8.88, 0.00, 0.00, 0.000, 0.000, 0.000, 10:37:57.766
52, 46.43, 5.80, 0.00, 0.00, 0.000, 0.000, 0.000, 10:37:57.766
53, 48.05, 7.66, 0.00, 0.00, 0.000, 0.000, 0.000, 10:37:57.766
54, 46.85, 5.94, 0.00, 0.00, 0.000, 0.000, 0.000, 10:37:57.766
55, 48.96, 9.17, 0.00, 0.00, 0.000, 0.000, 0.000, 10:37:57.781
56, 44.99, 9.29, 0.00, 0.00, 0.000, 0.000, 0.000, 10:37:57.781
57, 47.26, 11.19, 0.00, 0.00, 0.000, 0.000, 0.000, 10:37:57.796
58, 48.36, 10.86, 0.00, 0.00, 0.000, 0.000, 0.000, 10:37:57.796
59, 44.42, 8.59, 0.00, 0.00, 0.000, 0.000, 0.000, 10:37:57.796
60, 40.71, 3.72, 0.00, 0.00, 0.000, 0.000, 0.000, 10:37:57.797
61, 38.64, 10.54, 0.00, 0.00, 0.000, 0.000, 0.000, 10:37:57.811
62, 43.57, 11.44, 0.00, 0.00, 0.000, 0.000, 0.000, 10:37:57.811
63, 41.06, 8.49, 0.00, 0.00, 0.000, 0.000, 0.000, 10:37:57.826
64, 41.71, 7.36, 0.00, 0.00, 0.000, 0.000, 0.000, 10:37:57.826
65, 40.73, 8.04, 0.00, 0.00, 0.000, 0.000, 0.000, 10:37:57.826
66, 41.52, 14.30, 0.00, 0.00, 0.000, 0.000, 0.000, 10:37:57.826
67, 42.05, 7.61, 0.00, 0.00, 0.000, 0.000, 0.000, 10:37:57.841
68, 39.53, 6.41, 0.00, 0.00, 0.000, 0.000, 0.000, 10:37:57.841
69, 43.11, 9.72, 0.00, 0.00, 0.000, 0.000, 0.000, 10:37:57.857
70, 44.41, 11.27, 0.00, 0.00, 0.000, 0.000, 0.000, 10:37:57.857
71, 45.56, 7.17, 0.00, 0.00, 0.000, 0.000, 0.000, 10:37:57.864
72, 41.95, 4.43, 0.00, 0.00, 0.000, 0.000, 0.000, 10:37:57.864
73, 46.95, 9.89, 0.00, 0.00, 0.000, 0.000, 0.000, 10:37:57.871
74, 47.67, 12.76, 0.00, 0.00, 0.000, 0.000, 0.000, 10:37:57.871
75, 48.10, 8.47, 0.00, 0.00, 0.000, 0.000, 0.000, 10:37:57.887
76, 44.47, 6.40, 0.00, 0.00, 0.000, 0.000, 0.000, 10:37:57.887
77, 46.88, 10.48, 0.00, 0.00, 0.000, 0.000, 0.000, 10:37:57.887
78, 48.80, 14.78, 0.00, 0.00, 0.000, 0.000, 0.000, 10:37:57.887
79, 45.06, 12.61, 0.00, 0.00, 0.000, 0.000, 0.000, 10:37:57.901
80, 42.11, 8.41, 0.00, 0.00, 0.000, 0.000, 0.000, 10:37:57.901
81, 40.24, 11.55, 0.00, 0.00, 0.000, 0.000, 0.000, 10:37:57.916
82, 45.39, 11.89, 0.00, 0.00, 0.000, 0.000, 0.000, 10:37:57.916
83, 42.79, 13.41, 0.00, 0.00, 0.000, 0.000, 0.000, 10:37:57.917
84, 36.01, 4.88, 0.00, 0.00, 0.000, 0.000, 0.000, 10:37:57.917
85, 41.99, 6.30, 0.00, 0.00, 0.000, 0.000, 0.000, 10:37:57.931
86, 39.44, 15.42, 0.00, 0.00, 0.000, 0.000, 0.000, 10:37:57.932
87, 34.52, 9.18, 0.00, 0.00, 0.000, 0.000, 0.000, 10:37:57.946
88, 32.28, 7.41, 0.00, 0.00, 0.000, 0.000, 0.000, 10:37:57.947
89, 33.69, 11.00, 0.00, 0.00, 0.000, 0.000, 0.000, 10:37:57.947
90, 37.84, 10.18, 0.00, 0.00, 0.000, 0.000, 0.000, 10:37:57.947
91, 32.00, 11.65, 0.00, 0.00, 0.000, 0.000, 0.000, 10:37:57.961
92, 35.95, 7.87, 0.00, 0.00, 0.000, 0.000, 0.000, 10:37:57.961
93, 37.40, 8.65, 0.00, 0.00, 0.000, 0.000, 0.000, 10:37:57.975
94, 42.13, 8.50, 0.00, 0.00, 0.000, 0.000, 0.000, 10:37:57.976
95, 39.56, 10.16, 0.00, 0.00, 0.000, 0.000, 0.000, 10:37:57.976
96, 33.49, 1.70, 0.00, 0.00, 0.000, 0.000, 0.000, 10:37:57.978
97, 38.72, 9.60, 0.00, 0.00, 0.000, 0.000, 0.000, 10:37:57.991
98, 37.72, 12.36, 0.00, 0.00, 0.000, 0.000, 0.000, 10:37:57.991
99, 39.21, 9.09, 0.00, 0.00, 0.000, 0.000, 0.000, 10:37:58.006
100, 38.04, 4.76, 0.00, 0.00, 0.000, 0.000, 0.000, 10:37:58.006
101, 35.69, 8.22, 0.00, 0.00, 0.000, 0.000, 0.000, 10:37:58.006
102, 37.00, 10.30, 0.00, 0.00, 0.000, 0.000, 0.000, 10:37:58.007
103, 39.67, 7.39, 0.00, 0.00, 0.000, 0.000, 0.000, 10:37:58.021
104, 41.64, 6.03, 0.00, 0.00, 0.000, 0.000, 0.000, 10:37:58.022
105, 35.53, 8.33, 0.00, 0.00, 0.000, 0.000, 0.000, 10:37:58.036
106, 49.03, 7.29, 0.00, 0.00, 0.000, 0.000, 0.000, 10:37:58.037
107, 49.00, 10.48, 0.00, 0.00, 0.000, 0.000, 0.000, 10:37:58.037
108, 45.93, 7.58, 0.00, 0.00, 0.000, 0.000, 0.000, 10:37:58.037
109, 48.77, 7.82, 0.00, 0.00, 0.000, 0.000, 0.000, 10:37:58.066
110, 52.84, 6.62, 0.00, 0.00, 0.000, 0.000, 0.000, 10:37:58.067
111, 50.10, 7.49, 0.00, 0.00, 0.000, 0.000, 0.000, 10:37:58.067
112, 48.80, 5.48, 0.00, 0.00, 0.000, 0.000, 0.000, 10:37:58.067
113, 49.61, 7.37, 0.00, 0.00, 0.000, 0.000, 0.000, 10:37:58.067
114, 50.12, 7.57, 0.00, 0.00, 0.000, 0.000, 0.000, 10:37:58.068
115, 49.98, 8.88, 0.00, 0.00, 0.000, 0.000, 0.000, 10:37:58.080
116, 49.41, 12.63, 0.00, 0.00, 0.000, 0.000, 0.000, 10:37:58.081
117, 52.24, 7.85, 0.00, 0.00, 0.000, 0.000, 0.000, 10:37:58.096
118, 51.00, 9.95, 0.00, 0.00, 0.000, 0.000, 0.000, 10:37:58.096
119, 51.13, 6.39, 0.00, 0.00, 0.000, 0.000, 0.000, 10:37:58.097
120, 49.04, 5.48, 0.00, 0.00, 0.000, 0.000, 0.000, 10:37:58.097
121, 46.96, 7.09, 0.00, 0.00, 0.000, 0.000, 0.000, 10:37:58.111
122, 46.97, 10.97, 0.00, 0.00, 0.000, 0.000, 0.000, 10:37:58.111
123, 45.98, 7.27, 0.00, 0.00, 0.000, 0.000, 0.000, 10:37:58.141
124, 43.69, 4.80, 0.00, 0.00, 0.000, 0.000, 0.000, 10:37:58.141
125, 48.65, 10.06, 0.00, 0.00, 0.000, 0.000, 0.000, 10:37:58.142
126, 53.60, 9.02, 0.00, 0.00, 0.000, 0.000, 0.000, 10:37:58.142
127, 54.28, 7.59, 0.00, 0.00, 0.000, 0.000, 0.000, 10:37:58.142
128, 47.47, 6.17, 0.00, 0.00, 0.000, 0.000, 0.000, 10:37:58.142
129, 44.02, 8.40, 0.00, 0.00, 0.000, 0.000, 0.000, 10:37:58.143
130, 52.31, 9.50, 0.00, 0.00, 0.000, 0.000, 0.000, 10:37:58.143
131, 45.55, 13.93, 0.00, 0.00, 0.000, 0.000, 0.000, 10:37:58.156
132, 40.53, 6.86, 0.00, 0.00, 0.000, 0.000, 0.000, 10:37:58.156
133, 42.25, 10.31, 0.00, 0.00, 0.000, 0.000, 0.000, 10:37:58.171
134, 42.57, 10.36, 0.00, 0.00, 0.000, 0.000, 0.000, 10:37:58.171
135, 42.58, 6.54, 0.00, 0.00, 0.000, 0.000, 0.000, 10:37:58.185
136, 40.17, 6.34, 0.00, 0.00, 0.000, 0.000, 0.000, 10:37:58.186
137, 40.23, 13.65, 0.00, 0.00, 0.000, 0.000, 0.000, 10:37:58.186
138, 39.45, 11.03, 0.00, 0.00, 0.000, 0.000, 0.000, 10:37:58.186
139, 43.01, 6.28, 0.00, 0.00, 0.000, 0.000, 0.000, 10:37:58.201
140, 39.92, 6.24, 0.00, 0.00, 0.000, 0.000, 0.000, 10:37:58.201
141, 39.47, 6.74, 0.00, 0.00, 0.000, 0.000, 0.000, 10:37:58.216
142, 42.06, 7.54, 0.00, 0.00, 0.000, 0.000, 0.000, 10:37:58.217
143, 40.09, 8.82, 0.00, 0.00, 0.000, 0.000, 0.000, 10:37:58.217
144, 38.88, 6.50, 0.00, 0.00, 0.000, 0.000, 0.000, 10:37:58.217
145, 37.28, 9.03, 0.00, 0.00, 0.000, 0.000, 0.000, 10:37:58.231
146, 37.09, 8.66, 0.00, 0.00, 0.000, 0.000, 0.000, 10:37:58.232
147, 40.85, 3.00, 0.00, 0.00, 0.000, 0.000, 0.000, 10:37:58.246
148, 38.50, 5.52, 0.00, 0.00, 0.000, 0.000, 0.000, 10:37:58.247
149, 37.47, 2.53, 0.00, 0.00, 0.000, 0.000, 0.000, 10:37:58.247
150, 40.61, 4.26, 0.00, 0.00, 0.000, 0.000, 0.000, 10:37:58.247
151, 40.70, 4.44, 0.00, 0.00, 0.000, 0.000, 0.000, 10:37:58.261
152, 37.03, 5.97, 0.00, 0.00, 0.000, 0.000, 0.000, 10:37:58.261
153, 39.88, 8.13, 0.00, 0.00, 0.000, 0.000, 0.000, 10:37:58.275
154, 42.90, 7.95, 0.00, 0.00, 0.000, 0.000, 0.000, 10:37:58.276
155, 39.67, 8.87, 0.00, 0.00, 0.000, 0.000, 0.000, 10:37:58.276
156, 36.45, 8.52, 0.00, 0.00, 0.000, 0.000, 0.000, 10:37:58.276
157, 36.33, 10.58, 0.00, 0.00, 0.000, 0.000, 0.000, 10:37:58.291
158, 42.45, 13.76, 0.00, 0.00, 0.000, 0.000, 0.000, 10:37:58.291
159, 42.68, 6.31, 0.00, 0.00, 0.000, 0.000, 0.000, 10:37:58.305
160, 38.69, 6.64, 0.00, 0.00, 0.000, 0.000, 0.000, 10:37:58.305
161, 40.62, 9.46, 0.00, 0.00, 0.000, 0.000, 0.000, 10:37:58.306
162, 41.68, 9.79, 0.00, 0.00, 0.000, 0.000, 0.000, 10:37:58.306
163, 43.10, 6.87, 0.00, 0.00, 0.000, 0.000, 0.000, 10:37:58.321
164, 41.96, 6.25, 0.00, 0.00, 0.000, 0.000, 0.000, 10:37:58.321
165, 42.09, 5.70, 0.00, 0.00, 0.000, 0.000, 0.000, 10:37:58.335
166, 43.06, 10.77, 0.00, 0.00, 0.000, 0.000, 0.000, 10:37:58.335
167, 43.16, 10.14, 0.00, 0.00, 0.000, 0.000, 0.000, 10:37:58.335
168, 45.02, 3.92, 0.00, 0.00, 0.000, 0.000, 0.000, 10:37:58.337
169, 42.73, 8.11, 0.00, 0.00, 0.000, 0.000, 0.000, 10:37:58.367
170, 49.53, 8.26, 0.00, 0.00, 0.000, 0.000, 0.000, 10:37:58.367
171, 49.01, 5.32, 0.00, 0.00, 0.000, 0.000, 0.000, 10:37:58.370
172, 45.95, 8.09, 0.00, 0.00, 0.000, 0.000, 0.000, 10:37:58.370
173, 46.29, 10.74, 0.00, 0.00, 0.000, 0.000, 0.000, 10:37:58.370
174, 46.75, 12.78, 0.00, 0.00, 0.000, 0.000, 0.000, 10:37:58.371
175, 48.86, 9.39, 0.00, 0.00, 0.000, 0.000, 0.000, 10:37:58.383
176, 43.85, 6.06, 0.00, 0.00, 0.000, 0.000, 0.000, 10:37:58.383
177, 45.56, 9.30, 0.00, 0.00, 0.000, 0.000, 0.000, 10:37:58.396
178, 47.27, 10.43, 0.00, 0.00, 0.000, 0.000, 0.000, 10:37:58.396
179, 44.92, 12.00, 0.00, 0.00, 0.000, 0.000, 0.000, 10:37:58.397
180, 42.87, 10.66, 0.00, 0.00, 0.000, 0.000, 0.000, 10:37:58.397
181, 43.30, 10.88, 0.00, 0.00, 0.000, 0.000, 0.000, 10:37:58.412
182, 40.86, 13.72, 0.00, 0.00, 0.000, 0.000, 0.000, 10:37:58.412
183, 39.71, 7.51, 0.00, 0.00, 0.000, 0.000, 0.000, 10:37:58.426
184, 40.16, 8.44, 0.00, 0.00, 0.000, 0.000, 0.000, 10:37:58.426
185, 39.12, 11.15, 0.00, 0.00, 0.000, 0.000, 0.000, 10:37:58.426
186, 39.67, 13.09, 0.00, 0.00, 0.000, 0.000, 0.000, 10:37:58.427
187, 39.85, 9.95, 0.00, 0.00, 0.000, 0.000, 0.000, 10:37:58.441
188, 39.14, 7.39, 0.00, 0.00, 0.000, 0.000, 0.000, 10:37:58.441
189, 38.91, 11.50, 0.00, 0.00, 0.000, 0.000, 0.000, 10:37:58.456
190, 43.42, 14.62, 0.00, 0.00, 0.000, 0.000, 0.000, 10:37:58.456
191, 39.77, 8.77, 0.00, 0.00, 0.000, 0.000, 0.000, 10:37:58.456
192, 39.90, 5.81, 0.00, 0.00, 0.000, 0.000, 0.000, 10:37:58.457
193, 37.82, 11.17, 0.00, 0.00, 0.000, 0.000, 0.000, 10:37:58.470
194, 39.23, 10.71, 0.00, 0.00, 0.000, 0.000, 0.000, 10:37:58.471
195, 41.12, 7.07, 0.00, 0.00, 0.000, 0.000, 0.000, 10:37:58.486
196, 40.35, 10.25, 0.00, 0.00, 0.000, 0.000, 0.000, 10:37:58.486
197, 37.31, 8.74, 0.00, 0.00, 0.000, 0.000, 0.000, 10:37:58.486
198, 39.87, 11.62, 0.00, 0.00, 0.000, 0.000, 0.000, 10:37:58.486
199, 41.75, 7.29, 0.00, 0.00, 0.000, 0.000, 0.000, 10:37:58.500
200, 38.69, 6.67, 0.00, 0.00, 0.000, 0.000, 0.000, 10:37:58.500
0, 38.04, 10.34, 0.00, 0.00, 0.000, 0.000, 0.000, 10:37:58.500
1, 40.96, 12.89, 0.00, 0.00, 0.000, 0.000, 0.000, 10:37:58.515
2, 41.71, 11.42, 0.00, 0.00, 0.000, 0.000, 0.000, 10:37:58.516
3, 37.27, 7.24, 0.00, 0.00, 0.000, 0.000, 0.000, 10:37:58.531
4, 39.31, 6.73, 0.00, 0.00, 0.000, 0.000, 0.000, 10:37:58.531
5, 40.73, 10.13, 0.00, 0.00, 0.000, 0.000, 0.000, 10:37:58.531
6, 41.37, 7.72, 0.00, 0.00, 0.000, 0.000, 0.000, 10:37:58.532
7, 39.04, 4.20, 0.00, 0.00, 0.000, 0.000, 0.000, 10:37:58.546
8, 37.96, 6.78, 0.00, 0.00, 0.000, 0.000, 0.000, 10:37:58.546
9, 42.77, 8.19, 0.00, 0.00, 0.000, 0.000, 0.000, 10:37:58.561
10, 44.10, 6.28, 0.00, 0.00, 0.000, 0.000, 0.000, 10:37:58.561
11, 39.06, 3.21, 0.00, 0.00, 0.000, 0.000, 0.000, 10:37:58.561
12, 38.86, 5.06, 0.00, 0.00, 0.000, 0.000, 0.000, 10:37:58.561
13, 43.06, 10.37, 0.00, 0.00, 0.000, 0.000, 0.000, 10:37:58.576
14, 43.77, 8.74, 0.00, 0.00, 0.000, 0.000, 0.000, 10:37:58.576
15, 44.72, 5.10, 0.00, 0.00, 0.000, 0.000, 0.000, 10:37:58.591
16, 39.83, 7.97, 0.00, 0.00, 0.000, 0.000, 0.000, 10:37:58.591
17, 45.34, 7.19, 0.00, 0.00, 0.000, 0.000, 0.000, 10:37:58.592
18, 47.82, 10.23, 0.00, 0.00, 0.000, 0.000, 0.000, 10:37:58.592
19, 42.26, 6.43, 0.00, 0.00, 0.000, 0.000, 0.000, 10:37:58.606
20, 43.54, 9.12, 0.00, 0.00, 0.000, 0.000, 0.000, 10:37:58.606
21, 44.41, 9.26, 0.00, 0.00, 0.000, 0.000, 0.000, 10:37:58.620
22, 49.22, 7.95, 0.00, 0.00, 0.000, 0.000, 0.000, 10:37:58.620
23, 49.09, 8.12, 0.00, 0.00, 0.000, 0.000, 0.000, 10:37:58.621
24, 45.38, 8.21, 0.00, 0.00, 0.000, 0.000, 0.000, 10:37:58.621
25, 51.07, 9.96, 0.00, 0.00, 0.000, 0.000, 0.000, 10:37:58.636
26, 47.49, 7.98, 0.00, 0.00, 0.000, 0.000, 0.000, 10:37:58.636
27, 45.27, 4.96, 0.00, 0.00, 0.000, 0.000, 0.000, 10:37:58.651
28, 45.81, 5.41, 0.00, 0.00, 0.000, 0.000, 0.000, 10:37:58.652
29, 52.20, 7.79, 0.00, 0.00, 0.000, 0.000, 0.000, 10:37:58.652
30, 50.21, 6.48, 0.00, 0.00, 0.000, 0.000, 0.000, 10:37:58.652
31, 47.67, 5.11, 0.00, 0.00, 0.000, 0.000, 0.000, 10:37:58.666
32, 44.25, 7.44, 0.00, 0.00, 0.000, 0.000, 0.000, 10:37:58.667
33, 49.12, 12.43, 0.00, 0.00, 0.000, 0.000, 0.000, 10:37:58.682
34, 48.58, 8.50, 0.00, 0.00, 0.000, 0.000, 0.000, 10:37:58.683
35, 43.96, 8.23, 0.00, 0.00, 0.000, 0.000, 0.000, 10:37:58.683
36, 43.25, 9.66, 0.00, 0.00, 0.000, 0.000, 0.000, 10:37:58.683
37, 44.73, 11.79, 0.00, 0.00, 0.000, 0.000, 0.000, 10:37:58.696
38, 42.47, 9.96, 0.00, 0.00, 0.000, 0.000, 0.000, 10:37:58.696
39, 40.96, 8.87, 0.00, 0.00, 0.000, 0.000, 0.000, 10:37:58.710
40, 40.31, 9.01, 0.00, 0.00, 0.000, 0.000, 0.000, 10:37:58.711
41, 40.38, 14.91, 0.00, 0.00, 0.000, 0.000, 0.000, 10:37:58.718
42, 38.50, 12.51, 0.00, 0.00, 0.000, 0.000, 0.000, 10:37:58.718
43, 36.48, 9.91, 0.00, 0.00, 0.000, 0.000, 0.000, 10:37:58.725
44, 36.80, 10.81, 0.00, 0.00, 0.000, 0.000, 0.000, 10:37:58.726
45, 38.34, 13.48, 0.00, 0.00, 0.000, 0.000, 0.000, 10:37:58.741
46, 40.22, 8.28, 0.00, 0.00, 0.000, 0.000, 0.000, 10:37:58.741
47, 37.34, 9.28, 0.00, 0.00, 0.000, 0.000, 0.000, 10:37:58.743
48, 36.38, 10.25, 0.00, 0.00, 0.000, 0.000, 0.000, 10:37:58.743
49, 37.75, 11.09, 0.00, 0.00, 0.000, 0.000, 0.000, 10:37:58.756
50, 34.66, 11.43, 0.00, 0.00, 0.000, 0.000, 0.000, 10:37:58.756
51, 33.27, 5.72, 0.00, 0.00, 0.000, 0.000, 0.000, 10:37:58.771
52, 33.29, 6.89, 0.00, 0.00, 0.000, 0.000, 0.000, 10:37:58.771
53, 37.16, 10.19, 0.00, 0.00, 0.000, 0.000, 0.000, 10:37:58.771
54, 35.24, 12.00, 0.00, 0.00, 0.000, 0.000, 0.000, 10:37:58.772
55, 34.26, 6.14, 0.00, 0.00, 0.000, 0.000, 0.000, 10:37:58.786
56, 29.86, 10.35, 0.00, 0.00, 0.000, 0.000, 0.000, 10:37:58.786
57, 34.98, 8.33, 0.00, 0.00, 0.000, 0.000, 0.000, 10:37:58.801
58, 36.84, 6.40, 0.00, 0.00, 0.000, 0.000, 0.000, 10:37:58.801
59, 31.98, 7.08, 0.00, 0.00, 0.000, 0.000, 0.000, 10:37:58.801
60, 30.99, 11.45, 0.00, 0.00, 0.000, 0.000, 0.000, 10:37:58.801
61, 35.86, 9.83, 0.00, 0.00, 0.000, 0.000, 0.000, 10:37:58.816
62, 37.15, 9.56, 0.00, 0.00, 0.000, 0.000, 0.000, 10:37:58.816
63, 34.92, 4.31, 0.00, 0.00, 0.000, 0.000, 0.000, 10:37:58.831
64, 34.60, 7.69, 0.00, 0.00, 0.000, 0.000, 0.000, 10:37:58.831
65, 33.94, 8.78, 0.00, 0.00, 0.000, 0.000, 0.000, 10:37:58.831
66, 35.07, 9.61, 0.00, 0.00, 0.000, 0.000, 0.000, 10:37:58.832
67, 35.05, 5.60, 0.00, 0.00, 0.000, 0.000, 0.000, 10:37:58.846
68, 35.04, 6.56, 0.00, 0.00, 0.000, 0.000, 0.000, 10:37:58.846
69, 38.72, 12.26, 0.00, 0.00, 0.000, 0.000, 0.000, 10:37:58.861
70, 35.17, 8.75, 0.00, 0.00, 0.000, 0.000, 0.000, 10:37:58.862
71, 32.77, 6.50, 0.00, 0.00, 0.000, 0.000, 0.000, 10:37:58.862
72, 31.79, 6.61, 0.00, 0.00, 0.000, 0.000, 0.000, 10:37:58.862
73, 35.48, 5.97, 0.00, 0.00, 0.000, 0.000, 0.000, 10:37:58.876
74, 34.55, 9.66, 0.00, 0.00, 0.000, 0.000, 0.000, 10:37:58.877
75, 32.47, 6.14, 0.00, 0.00, 0.000, 0.000, 0.000, 10:37:58.892
76, 32.17, 8.03, 0.00, 0.00, 0.000, 0.000, 0.000, 10:37:58.892
77, 33.87, 9.66, 0.00, 0.00, 0.000, 0.000, 0.000, 10:37:58.893
78, 32.38, 9.27, 0.00, 0.00, 0.000, 0.000, 0.000, 10:37:58.893
79, 30.17, 4.62, 0.00, 0.00, 0.000, 0.000, 0.000, 10:37:58.907
80, 31.87, 5.76, 0.00, 0.00, 0.000, 0.000, 0.000, 10:37:58.907
81, 33.32, 7.42, 0.00, 0.00, 0.000, 0.000, 0.000, 10:37:58.924
82, 31.85, 6.24, 0.00, 0.00, 0.000, 0.000, 0.000, 10:37:58.925
83, 31.42, 7.83, 0.00, 0.00, 0.000, 0.000, 0.000, 10:37:58.925
84, 31.86, 8.46, 0.00, 0.00, 0.000, 0.000, 0.000, 10:37:58.925
85, 38.58, 5.57, 0.00, 0.00, 0.000, 0.000, 0.000, 10:37:58.940
86, 38.60, 8.98, 0.00, 0.00, 0.000, 0.000, 0.000, 10:37:58.940
87, 34.73, 4.34, 0.00, 0.00, 0.000, 0.000, 0.000, 10:37:58.950
88, 37.32, 2.69, 0.00, 0.00, 0.000, 0.000, 0.000, 10:37:58.951
89, 36.47, 9.85, 0.00, 0.00, 0.000, 0.000, 0.000, 10:37:58.951
90, 39.38, 8.67, 0.00, 0.00, 0.000, 0.000, 0.000, 10:37:58.951
91, 36.42, 9.88, 0.00, 0.00, 0.000, 0.000, 0.000, 10:37:58.966
92, 34.48, 6.51, 0.00, 0.00, 0.000, 0.000, 0.000, 10:37:58.966
93, 39.15, 8.58, 0.00, 0.00, 0.000, 0.000, 0.000, 10:37:58.983
94, 39.45, 8.25, 0.00, 0.00, 0.000, 0.000, 0.000, 10:37:58.983
95, 34.95, 7.68, 0.00, 0.00, 0.000, 0.000, 0.000, 10:37:58.983
96, 36.13, 5.85, 0.00, 0.00, 0.000, 0.000, 0.000, 10:37:58.983
97, 40.18, 6.27, 0.00, 0.00, 0.000, 0.000, 0.000, 10:37:58.997
98, 38.99, 7.66, 0.00, 0.00, 0.000, 0.000, 0.000, 10:37:58.997
99, 37.87, 5.86, 0.00, 0.00, 0.000, 0.000, 0.000, 10:37:59.011
100, 37.97, 5.27, 0.00, 0.00, 0.000, 0.000, 0.000, 10:37:59.011
101, 41.14, 10.99, 0.00, 0.00, 0.000, 0.000, 0.000, 10:37:59.011
102, 41.70, 11.23, 0.00, 0.00, 0.000, 0.000, 0.000, 10:37:59.012
103, 37.06, 4.51, 0.00, 0.00, 0.000, 0.000, 0.000, 10:37:59.026
104, 40.44, 10.07, 0.00, 0.00, 0.000, 0.000, 0.000, 10:37:59.026
105, 41.49, 10.44, 0.00, 0.00, 0.000, 0.000, 0.000, 10:37:59.043
106, 41.23, 6.39, 0.00, 0.00, 0.000, 0.000, 0.000, 10:37:59.043
107, 41.23, 5.68, 0.00, 0.00, 0.000, 0.000, 0.000, 10:37:59.043
108, 39.76, 8.76, 0.00, 0.00, 0.000, 0.000, 0.000, 10:37:59.043
109, 38.22, 10.19, 0.00, 0.00, 0.000, 0.000, 0.000, 10:37:59.056
110, 40.91, 8.69, 0.00, 0.00, 0.000, 0.000, 0.000, 10:37:59.057
111, 38.40, 6.60, 0.00, 0.00, 0.000, 0.000, 0.000, 10:37:59.071
112, 35.93, 6.68, 0.00, 0.00, 0.000, 0.000, 0.000, 10:37:59.071
113, 37.37, 12.42, 0.00, 0.00, 0.000, 0.000, 0.000, 10:37:59.072
114, 38.18, 7.37, 0.00, 0.00, 0.000, 0.000, 0.000, 10:37:59.072
115, 39.94, 4.76, 0.00, 0.00, 0.000, 0.000, 0.000, 10:37:59.086
116, 38.50, 6.61, 0.00, 0.00, 0.000, 0.000, 0.000, 10:37:59.086
117, 45.57, 6.61, 0.00, 0.00, 0.000, 0.000, 0.000, 10:37:59.101
118, 44.96, 6.94, 0.00, 0.00, 0.000, 0.000, 0.000, 10:37:59.101
119, 41.37, 4.80, 0.00, 0.00, 0.000, 0.000, 0.000, 10:37:59.101
120, 45.15, 7.42, 0.00, 0.00, 0.000, 0.000, 0.000, 10:37:59.101
121, 44.85, 5.90, 0.00, 0.00, 0.000, 0.000, 0.000, 10:37:59.116
122, 45.84, 9.79, 0.00, 0.00, 0.000, 0.000, 0.000, 10:37:59.116
123, 40.87, 9.30, 0.00, 0.00, 0.000, 0.000, 0.000, 10:37:59.131
124, 42.96, 6.91, 0.00, 0.00, 0.000, 0.000, 0.000, 10:37:59.131
125, 48.66, 6.75, 0.00, 0.00, 0.000, 0.000, 0.000, 10:37:59.131
126, 46.68, 9.66, 0.00, 0.00, 0.000, 0.000, 0.000, 10:37:59.131
127, 48.31, 3.92, 0.00, 0.00, 0.000, 0.000, 0.000, 10:37:59.146
128, 48.97, 5.81, 0.00, 0.00, 0.000, 0.000, 0.000, 10:37:59.146
129, 50.09, 7.87, 0.00, 0.00, 0.000, 0.000, 0.000, 10:37:59.175
130, 52.25, 8.11, 0.00, 0.00, 0.000, 0.000, 0.000, 10:37:59.176
131, 45.88, 7.04, 0.00, 0.00, 0.000, 0.000, 0.000, 10:37:59.176
132, 45.14, 6.46, 0.00, 0.00, 0.000, 0.000, 0.000, 10:37:59.176
133, 47.04, 9.76, 0.00, 0.00, 0.000, 0.000, 0.000, 10:37:59.176
134, 49.42, 8.87, 0.00, 0.00, 0.000, 0.000, 0.000, 10:37:59.177
135, 44.83, 8.59, 0.00, 0.00, 0.000, 0.000, 0.000, 10:37:59.179
136, 49.01, 8.67, 0.00, 0.00, 0.000, 0.000, 0.000, 10:37:59.179
137, 49.07, 17.32, 0.00, 0.00, 0.000, 0.000, 0.000, 10:37:59.198
138, 50.04, 7.41, 0.00, 0.00, 0.000, 0.000, 0.000, 10:37:59.198
139, 48.97, 6.42, 0.00, 0.00, 0.000, 0.000, 0.000, 10:37:59.207
140, 48.71, 7.64, 0.00, 0.00, 0.000, 0.000, 0.000, 10:37:59.207
141, 49.45, 11.09, 0.00, 0.00, 0.000, 0.000, 0.000, 10:37:59.221
142, 49.69, 9.75, 0.00, 0.00, 0.000, 0.000, 0.000, 10:37:59.221
143, 45.71, 9.01, 0.00, 0.00, 0.000, 0.000, 0.000, 10:37:59.221
144, 43.06, 7.93, 0.00, 0.00, 0.000, 0.000, 0.000, 10:37:59.222
145, 44.89, 11.10, 0.00, 0.00, 0.000, 0.000, 0.000, 10:37:59.236
146, 42.66, 12.83, 0.00, 0.00, 0.000, 0.000, 0.000, 10:37:59.236
147, 42.15, 4.73, 0.00, 0.00, 0.000, 0.000, 0.000, 10:37:59.251
148, 43.93, 12.97, 0.00, 0.00, 0.000, 0.000, 0.000, 10:37:59.251
149, 44.93, 10.88, 0.00, 0.00, 0.000, 0.000, 0.000, 10:37:59.251
150, 45.30, 4.96, 0.00, 0.00, 0.000, 0.000, 0.000, 10:37:59.251
151, 42.63, 10.10, 0.00, 0.00, 0.000, 0.000, 0.000, 10:37:59.265
152, 44.53, 11.17, 0.00, 0.00, 0.000, 0.000, 0.000, 10:37:59.265
153, 43.33, 9.52, 0.00, 0.00, 0.000, 0.000, 0.000, 10:37:59.281
154, 46.04, 4.00, 0.00, 0.00, 0.000, 0.000, 0.000, 10:37:59.281
155, 42.73, 8.49, 0.00, 0.00, 0.000, 0.000, 0.000, 10:37:59.282
156, 44.73, 9.96, 0.00, 0.00, 0.000, 0.000, 0.000, 10:37:59.283
157, 48.01, 10.26, 0.00, 0.00, 0.000, 0.000, 0.000, 10:37:59.296
158, 45.67, 12.96, 0.00, 0.00, 0.000, 0.000, 0.000, 10:37:59.296
159, 44.81, 7.87, 0.00, 0.00, 0.000, 0.000, 0.000, 10:37:59.311
160, 41.90, 11.01, 0.00, 0.00, 0.000, 0.000, 0.000, 10:37:59.311
161, 44.59, 11.00, 0.00, 0.00, 0.000, 0.000, 0.000, 10:37:59.311
162, 43.83, 7.49, 0.00, 0.00, 0.000, 0.000, 0.000, 10:37:59.311
163, 40.91, 5.30, 0.00, 0.00, 0.000, 0.000, 0.000, 10:37:59.326
164, 45.46, 11.50, 0.00, 0.00, 0.000, 0.000, 0.000, 10:37:59.326
165, 48.79, 12.15, 0.00, 0.00, 0.000, 0.000, 0.000, 10:37:59.340
166, 42.66, 10.80, 0.00, 0.00, 0.000, 0.000, 0.000, 10:37:59.340
167, 41.01, 9.65, 0.00, 0.00, 0.000, 0.000, 0.000, 10:37:59.341
168, 43.27, 11.44, 0.00, 0.00, 0.000, 0.000, 0.000, 10:37:59.341
169, 44.53, 13.07, 0.00, 0.00, 0.000, 0.000, 0.000, 10:37:59.356
170, 42.24, 14.21, 0.00, 0.00, 0.000, 0.000, 0.000, 10:37:59.356
171, 40.32, 9.15, 0.00, 0.00, 0.000, 0.000, 0.000, 10:37:59.370
172, 36.16, 13.19, 0.00, 0.00, 0.000, 0.000, 0.000, 10:37:59.370
173, 40.85, 14.08, 0.00, 0.00, 0.000, 0.000, 0.000, 10:37:59.371
174, 39.23, 11.56, 0.00, 0.00, 0.000, 0.000, 0.000, 10:37:59.371
175, 36.09, 10.04, 0.00, 0.00, 0.000, 0.000, 0.000, 10:37:59.386
176, 36.24, 11.66, 0.00, 0.00, 0.000, 0.000, 0.000, 10:37:59.386
177, 35.20, 12.89, 0.00, 0.00, 0.000, 0.000, 0.000, 10:37:59.405
178, 36.06, 11.27, 0.00, 0.00, 0.000, 0.000, 0.000, 10:37:59.405
179, 29.13, 8.45, 0.00, 0.00, 0.000, 0.000, 0.000, 10:37:59.409
180, 29.68, 7.92, 0.00, 0.00, 0.000, 0.000, 0.000, 10:37:59.409
181, 31.59, 9.92, 0.00, 0.00, 0.000, 0.000, 0.000, 10:37:59.417
182, 30.45, 10.18, 0.00, 0.00, 0.000, 0.000, 0.000, 10:37:59.420
183, 25.08, 3.57, 0.00, 0.00, 0.000, 0.000, 0.000, 10:37:59.431
184, 25.63, 9.23, 0.00, 0.00, 0.000, 0.000, 0.000, 10:37:59.431
185, 25.29, 13.04, 0.00, 0.00, 0.000, 0.000, 0.000, 10:37:59.432
186, 25.44, 6.18, 0.00, 0.00, 0.000, 0.000, 0.000, 10:37:59.432
187, 26.26, 7.11, 0.00, 0.00, 0.000, 0.000, 0.000, 10:37:59.445
188, 27.20, 10.46, 0.00, 0.00, 0.000, 0.000, 0.000, 10:37:59.446
189, 29.22, 14.97, 0.00, 0.00, 0.000, 0.000, 0.000, 10:37:59.461
190, 32.43, 7.95, 0.00, 0.00, 0.000, 0.000, 0.000, 10:37:59.461
191, 31.44, 7.67, 0.00, 0.00, 0.000, 0.000, 0.000, 10:37:59.461
192, 32.77, 7.29, 0.00, 0.00, 0.000, 0.000, 0.000, 10:37:59.462
193, 33.53, 6.53, 0.00, 0.00, 0.000, 0.000, 0.000, 10:37:59.483
194, 36.92, 9.24, 0.00, 0.00, 0.000, 0.000, 0.000, 10:37:59.484
195, 35.79, 8.82, 0.00, 0.00, 0.000, 0.000, 0.000, 10:37:59.491
196, 32.91, 9.90, 0.00, 0.00, 0.000, 0.000, 0.000, 10:37:59.491
197, 37.20, 13.51, 0.00, 0.00, 0.000, 0.000, 0.000, 10:37:59.492
198, 37.74, 10.22, 0.00, 0.00, 0.000, 0.000, 0.000, 10:37:59.492
199, 36.56, 7.96, 0.00, 0.00, 0.000, 0.000, 0.000, 10:37:59.506
200, 38.65, 7.89, 0.00, 0.00, 0.000, 0.000, 0.000, 10:37:59.506
0, 41.86, 9.02, 0.00, 0.00, 0.000, 0.000, 0.000, 10:37:59.506
1, 39.43, 10.63, 0.00, 0.00, 0.000, 0.000, 0.000, 10:37:59.521
2, 38.56, 7.75, 0.00, 0.00, 0.000, 0.000, 0.000, 10:37:59.521
3, 36.24, 10.67, 0.00, 0.00, 0.000, 0.000, 0.000, 10:37:59.535
4, 39.13, 8.17, 0.00, 0.00, 0.000, 0.000, 0.000, 10:37:59.535
5, 36.22, 5.81, 0.00, 0.00, 0.000, 0.000, 0.000, 10:37:59.536
6, 38.90, 5.81, 0.00, 0.00, 0.000, 0.000, 0.000, 10:37:59.536
7, 37.87, 5.74, 0.00, 0.00, 0.000, 0.000, 0.000, 10:37:59.550
8, 42.06, 10.42, 0.00, 0.00, 0.000, 0.000, 0.000, 10:37:59.550
9, 42.48, 10.36, 0.00, 0.00, 0.000, 0.000, 0.000, 10:37:59.565
10, 38.96, 6.73, 0.00, 0.00, 0.000, 0.000, 0.000, 10:37:59.566
11, 40.47, 9.70, 0.00, 0.00, 0.000, 0.000, 0.000, 10:37:59.566
12, 43.85, 10.37, 0.00, 0.00, 0.000, 0.000, 0.000, 10:37:59.566
13, 41.13, 9.64, 0.00, 0.00, 0.000, 0.000, 0.000, 10:37:59.581
14, 41.42, 5.80, 0.00, 0.00, 0.000, 0.000, 0.000, 10:37:59.581
15, 41.17, 3.75, 0.00, 0.00, 0.000, 0.000, 0.000, 10:37:59.596
16, 42.67, 13.82, 0.00, 0.00, 0.000, 0.000, 0.000, 10:37:59.596
17, 39.85, 10.01, 0.00, 0.00, 0.000, 0.000, 0.000, 10:37:59.596
18, 37.73, 8.40, 0.00, 0.00, 0.000, 0.000, 0.000, 10:37:59.597
19, 41.43, 8.47, 0.00, 0.00, 0.000, 0.000, 0.000, 10:37:59.611
20, 42.29, 10.93, 0.00, 0.00, 0.000, 0.000, 0.000, 10:37:59.611
21, 41.76, 9.27, 0.00, 0.00, 0.000, 0.000, 0.000, 10:37:59.626
22, 35.54, 5.58, 0.00, 0.00, 0.000, 0.000, 0.000, 10:37:59.626
23, 36.55, 9.96, 0.00, 0.00, 0.000, 0.000, 0.000, 10:37:59.627
24, 39.45, 8.36, 0.00, 0.00, 0.000, 0.000, 0.000, 10:37:59.627
25, 36.28, 9.74, 0.00, 0.00, 0.000, 0.000, 0.000, 10:37:59.641
26, 38.02, 6.75, 0.00, 0.00, 0.000, 0.000, 0.000, 10:37:59.641
27, 38.76, 5.82, 0.00, 0.00, 0.000, 0.000, 0.000, 10:37:59.656
28, 41.05, 9.79, 0.00, 0.00, 0.000, 0.000, 0.000, 10:37:59.656
29, 40.53, 8.04, 0.00, 0.00, 0.000, 0.000, 0.000, 10:37:59.657
30, 39.79, 9.01, 0.00, 0.00, 0.000, 0.000, 0.000, 10:37:59.657
31, 37.46, 10.26, 0.00, 0.00, 0.000, 0.000, 0.000, 10:37:59.671
32, 39.69, 10.65, 0.00, 0.00, 0.000, 0.000, 0.000, 10:37:59.672
33, 40.17, 7.46, 0.00, 0.00, 0.000, 0.000, 0.000, 10:37:59.687
34, 38.55, 6.11, 0.00, 0.00, 0.000, 0.000, 0.000, 10:37:59.688
35, 39.58, 9.19, 0.00, 0.00, 0.000, 0.000, 0.000, 10:37:59.688
36, 43.51, 10.68, 0.00, 0.00, 0.000, 0.000, 0.000, 10:37:59.688
37, 43.59, 10.48, 0.00, 0.00, 0.000, 0.000, 0.000, 10:37:59.702
38, 39.71, 8.86, 0.00, 0.00, 0.000, 0.000, 0.000, 10:37:59.702
39, 42.82, 9.48, 0.00, 0.00, 0.000, 0.000, 0.000, 10:37:59.716
40, 42.97, 8.78, 0.00, 0.00, 0.000, 0.000, 0.000, 10:37:59.716
41, 44.38, 10.90, 0.00, 0.00, 0.000, 0.000, 0.000, 10:37:59.717
42, 41.10, 7.20, 0.00, 0.00, 0.000, 0.000, 0.000, 10:37:59.717
43, 40.55, 11.44, 0.00, 0.00, 0.000, 0.000, 0.000, 10:37:59.731
44, 39.73, 13.42, 0.00, 0.00, 0.000, 0.000, 0.000, 10:37:59.731
45, 41.35, 10.86, 0.00, 0.00, 0.000, 0.000, 0.000, 10:37:59.746
46, 39.61, 5.90, 0.00, 0.00, 0.000, 0.000, 0.000, 10:37:59.746
47, 39.30, 7.86, 0.00, 0.00, 0.000, 0.000, 0.000, 10:37:59.746
48, 42.87, 12.27, 0.00, 0.00, 0.000, 0.000, 0.000, 10:37:59.747
49, 42.28, 13.54, 0.00, 0.00, 0.000, 0.000, 0.000, 10:37:59.761
50, 39.46, 7.81, 0.00, 0.00, 0.000, 0.000, 0.000, 10:37:59.761
51, 40.06, 4.81, 0.00, 0.00, 0.000, 0.000, 0.000, 10:37:59.776
52, 42.80, 9.81, 0.00, 0.00, 0.000, 0.000, 0.000, 10:37:59.776
53, 39.36, 7.52, 0.00, 0.00, 0.000, 0.000, 0.000, 10:37:59.776
54, 40.68, 8.54, 0.00, 0.00, 0.000, 0.000, 0.000, 10:37:59.776
55, 42.59, 11.29, 0.00, 0.00, 0.000, 0.000, 0.000, 10:37:59.791
56, 42.61, 10.52, 0.00, 0.00, 0.000, 0.000, 0.000, 10:37:59.791
57, 39.47, 10.08, 0.00, 0.00, 0.000, 0.000, 0.000, 10:37:59.806
58, 39.96, 7.26, 0.00, 0.00, 0.000, 0.000, 0.000, 10:37:59.806
59, 40.29, 13.53, 0.00, 0.00, 0.000, 0.000, 0.000, 10:37:59.807
60, 42.95, 14.88, 0.00, 0.00, 0.000, 0.000, 0.000, 10:37:59.807
61, 43.38, 11.29, 0.00, 0.00, 0.000, 0.000, 0.000, 10:37:59.821
62, 40.79, 7.37, 0.00, 0.00, 0.000, 0.000, 0.000, 10:37:59.821
63, 40.65, 6.52, 0.00, 0.00, 0.000, 0.000, 0.000, 10:37:59.836
64, 40.33, 8.85, 0.00, 0.00, 0.000, 0.000, 0.000, 10:37:59.836
65, 40.82, 8.99, 0.00, 0.00, 0.000, 0.000, 0.000, 10:37:59.836
66, 38.09, 6.58, 0.00, 0.00, 0.000, 0.000, 0.000, 10:37:59.836
67, 38.41, 10.19, 0.00, 0.00, 0.000, 0.000, 0.000, 10:37:59.851
68, 41.46, 11.36, 0.00, 0.00, 0.000, 0.000, 0.000, 10:37:59.851
69, 39.51, 10.91, 0.00, 0.00, 0.000, 0.000, 0.000, 10:37:59.866
70, 38.15, 7.87, 0.00, 0.00, 0.000, 0.000, 0.000, 10:37:59.866
71, 39.97, 9.51, 0.00, 0.00, 0.000, 0.000, 0.000, 10:37:59.867
72, 38.80, 10.43, 0.00, 0.00, 0.000, 0.000, 0.000, 10:37:59.867
73, 33.67, 11.05, 0.00, 0.00, 0.000, 0.000, 0.000, 10:37:59.881
74, 35.18, 12.40, 0.00, 0.00, 0.000, 0.000, 0.000, 10:37:59.881
75, 32.96, 8.80, 0.00, 0.00, 0.000, 0.000, 0.000, 10:37:59.896
76, 36.14, 10.61, 0.00, 0.00, 0.000, 0.000, 0.000, 10:37:59.896
77, 33.97, 12.32, 0.00, 0.00, 0.000, 0.000, 0.000, 10:37:59.904
78, 34.56, 12.75, 0.00, 0.00, 0.000, 0.000, 0.000, 10:37:59.904
79, 35.21, 8.39, 0.00, 0.00, 0.000, 0.000, 0.000, 10:37:59.911
80, 36.85, 11.55, 0.00, 0.00, 0.000, 0.000, 0.000, 10:37:59.911
81, 37.00, 9.30, 0.00, 0.00, 0.000, 0.000, 0.000, 10:37:59.926
82, 35.98, 4.43, 0.00, 0.00, 0.000, 0.000, 0.000, 10:37:59.927
83, 38.39, 9.94, 0.00, 0.00, 0.000, 0.000, 0.000, 10:37:59.927
84, 44.10, 9.87, 0.00, 0.00, 0.000, 0.000, 0.000, 10:37:59.928
85, 43.48, 9.78, 0.00, 0.00, 0.000, 0.000, 0.000, 10:37:59.942
86, 41.71, 6.71, 0.00, 0.00, 0.000, 0.000, 0.000, 10:37:59.942
87, 42.82, 8.03, 0.00, 0.00, 0.000, 0.000, 0.000, 10:37:59.956
88, 44.64, 6.79, 0.00, 0.00, 0.000, 0.000, 0.000, 10:37:59.956
89, 44.15, 6.76, 0.00, 0.00, 0.000, 0.000, 0.000, 10:37:59.958
90, 44.25, 6.73, 0.00, 0.00, 0.000, 0.000, 0.000, 10:37:59.958
91, 40.95, 10.31, 0.00, 0.00, 0.000, 0.000, 0.000, 10:37:59.971
92, 41.74, 10.94, 0.00, 0.00, 0.000, 0.000, 0.000, 10:37:59.972
93, 42.07, 8.47, 0.00, 0.00, 0.000, 0.000, 0.000, 10:37:59.986
94, 41.75, 6.09, 0.00, 0.00, 0.000, 0.000, 0.000, 10:37:59.986
95, 42.30, 10.00, 0.00, 0.00, 0.000, 0.000, 0.000, 10:37:59.986
96, 42.52, 14.58, 0.00, 0.00, 0.000, 0.000, 0.000, 10:37:59.986
97, 43.71, 12.39, 0.00, 0.00, 0.000, 0.000, 0.000, 10:38:00.001
98, 40.25, 8.51, 0.00, 0.00, 0.000, 0.000, 0.000, 10:38:00.001
99, 42.00, 8.17, 0.00, 0.00, 0.000, 0.000, 0.000, 10:38:00.016
100, 41.40, 11.63, 0.00, 0.00, 0.000, 0.000, 0.000, 10:38:00.016
101, 45.06, 13.00, 0.00, 0.00, 0.000, 0.000, 0.000, 10:38:00.016
102, 42.24, 7.06, 0.00, 0.00, 0.000, 0.000, 0.000, 10:38:00.017
103, 39.96, 6.24, 0.00, 0.00, 0.000, 0.000, 0.000, 10:38:00.031
104, 43.01, 12.88, 0.00, 0.00, 0.000, 0.000, 0.000, 10:38:00.032
105, 43.01, 8.81, 0.00, 0.00, 0.000, 0.000, 0.000, 10:38:00.045
106, 42.22, 5.63, 0.00, 0.00, 0.000, 0.000, 0.000, 10:38:00.046
107, 40.96, 7.43, 0.00, 0.00, 0.000, 0.000, 0.000, 10:38:00.046
108, 43.34, 6.66, 0.00, 0.00, 0.000, 0.000, 0.000, 10:38:00.046
109, 46.11, 9.02, 0.00, 0.00, 0.000, 0.000, 0.000, 10:38:00.062
110, 44.01, 5.09, 0.00, 0.00, 0.000, 0.000, 0.000, 10:38:00.062
111, 43.03, 6.81, 0.00, 0.00, 0.000, 0.000, 0.000, 10:38:00.076
112, 46.89, 7.53, 0.00, 0.00, 0.000, 0.000, 0.000, 10:38:00.076
113, 50.39, 9.84, 0.00, 0.00, 0.000, 0.000, 0.000, 10:38:00.076
114, 48.11, 6.50, 0.00, 0.00, 0.000, 0.000, 0.000, 10:38:00.076
115, 47.99, 5.80, 0.00, 0.00, 0.000, 0.000, 0.000, 10:38:00.095
116, 50.88, 10.42, 0.00, 0.00, 0.000, 0.000, 0.000, 10:38:00.095
117, 50.90, 11.58, 0.00, 0.00, 0.000, 0.000, 0.000, 10:38:00.106
118, 47.20, 6.20, 0.00, 0.00, 0.000, 0.000, 0.000, 10:38:00.107
119, 42.82, 10.44, 0.00, 0.00, 0.000, 0.000, 0.000, 10:38:00.107
120, 49.02, 12.21, 0.00, 0.00, 0.000, 0.000, 0.000, 10:38:00.107
121, 48.19, 9.16, 0.00, 0.00, 0.000, 0.000, 0.000, 10:38:00.121
122, 42.69, 9.68, 0.00, 0.00, 0.000, 0.000, 0.000, 10:38:00.121
123, 45.20, 9.43, 0.00, 0.00, 0.000, 0.000, 0.000, 10:38:00.136
124, 41.15, 11.49, 0.00, 0.00, 0.000, 0.000, 0.000, 10:38:00.136
125, 42.79, 11.22, 0.00, 0.00, 0.000, 0.000, 0.000, 10:38:00.137
126, 40.82, 8.38, 0.00, 0.00, 0.000, 0.000, 0.000, 10:38:00.138
127, 42.28, 9.11, 0.00, 0.00, 0.000, 0.000, 0.000, 10:38:00.152
128, 40.55, 12.03, 0.00, 0.00, 0.000, 0.000, 0.000, 10:38:00.152
129, 39.04, 12.82, 0.00, 0.00, 0.000, 0.000, 0.000, 10:38:00.166
130, 38.80, 8.09, 0.00, 0.00, 0.000, 0.000, 0.000, 10:38:00.166
131, 41.40, 12.71, 0.00, 0.00, 0.000, 0.000, 0.000, 10:38:00.166
132, 41.83, 10.62, 0.00, 0.00, 0.000, 0.000, 0.000, 10:38:00.167
133, 36.35, 7.31, 0.00, 0.00, 0.000, 0.000, 0.000, 10:38:00.180
134, 36.81, 6.07, 0.00, 0.00, 0.000, 0.000, 0.000, 10:38:00.180
135, 39.74, 10.37, 0.00, 0.00, 0.000, 0.000, 0.000, 10:38:00.195
136, 41.57, 10.87, 0.00, 0.00, 0.000, 0.000, 0.000, 10:38:00.196
137, 38.74, 10.17, 0.00, 0.00, 0.000, 0.000, 0.000, 10:38:00.196
138, 37.69, 1.54, 0.00, 0.00, 0.000, 0.000, 0.000, 10:38:00.196
139, 38.37, 9.08, 0.00, 0.00, 0.000, 0.000, 0.000, 10:38:00.211
140, 40.38, 8.41, 0.00, 0.00, 0.000, 0.000, 0.000, 10:38:00.211
141, 37.50, 5.59, 0.00, 0.00, 0.000, 0.000, 0.000, 10:38:00.226
142, 36.70, 7.16, 0.00, 0.00, 0.000, 0.000, 0.000, 10:38:00.226
143, 35.78, 8.14, 0.00, 0.00, 0.000, 0.000, 0.000, 10:38:00.226
144, 38.36, 9.00, 0.00, 0.00, 0.000, 0.000, 0.000, 10:38:00.226
145, 36.62, 6.99, 0.00, 0.00, 0.000, 0.000, 0.000, 10:38:00.241
146, 36.32, 9.67, 0.00, 0.00, 0.000, 0.000, 0.000, 10:38:00.241
147, 38.44, 6.16, 0.00, 0.00, 0.000, 0.000, 0.000, 10:38:00.256
148, 41.51, 10.18, 0.00, 0.00, 0.000, 0.000, 0.000, 10:38:00.256
149, 42.65, 6.60, 0.00, 0.00, 0.000, 0.000, 0.000, 10:38:00.257
150, 40.99, 3.15, 0.00, 0.00, 0.000, 0.000, 0.000, 10:38:00.257
151, 40.67, 6.96, 0.00, 0.00, 0.000, 0.000, 0.000, 10:38:00.271
152, 45.99, 6.97, 0.00, 0.00, 0.000, 0.000, 0.000, 10:38:00.271
153, 42.07, 8.67, 0.00, 0.00, 0.000, 0.000, 0.000, 10:38:00.286
154, 43.20, 4.50, 0.00, 0.00, 0.000, 0.000, 0.000, 10:38:00.286
155, 45.45, 3.67, 0.00, 0.00, 0.000, 0.000, 0.000, 10:38:00.293
156, 44.14, 8.41, 0.00, 0.00, 0.000, 0.000, 0.000, 10:38:00.294
157, 48.80, 5.38, 0.00, 0.00, 0.000, 0.000, 0.000, 10:38:00.302
158, 39.48, 6.27, 0.00, 0.00, 0.000, 0.000, 0.000, 10:38:00.302
159, 43.22, 6.35, 0.00, 0.00, 0.000, 0.000, 0.000, 10:38:00.316
160, 41.23, 8.25, 0.00, 0.00, 0.000, 0.000, 0.000, 10:38:00.316
161, 43.04, 11.37, 0.00, 0.00, 0.000, 0.000, 0.000, 10:38:00.316
162, 43.20, 3.81, 0.00, 0.00, 0.000, 0.000, 0.000, 10:38:00.316
163, 44.90, 8.85, 0.00, 0.00, 0.000, 0.000, 0.000, 10:38:00.331
164, 43.73, 11.58, 0.00, 0.00, 0.000, 0.000, 0.000, 10:38:00.331
165, 46.49, 6.31, 0.00, 0.00, 0.000, 0.000, 0.000, 10:38:00.346
166, 46.49, 3.20, 0.00, 0.00, 0.000, 0.000, 0.000, 10:38:00.348
167, 46.01, 7.97, 0.00, 0.00, 0.000, 0.000, 0.000, 10:38:00.348
168, 50.40, 7.21, 0.00, 0.00, 0.000, 0.000, 0.000, 10:38:00.349
169, 47.62, 6.95, 0.00, 0.00, 0.000, 0.000, 0.000, 10:38:00.361
170, 41.31, 5.98, 0.00, 0.00, 0.000, 0.000, 0.000, 10:38:00.362
171, 42.82, 7.26, 0.00, 0.00, 0.000, 0.000, 0.000, 10:38:00.377
172, 50.14, 6.34, 0.00, 0.00, 0.000, 0.000, 0.000, 10:38:00.377
173, 47.93, 8.53, 0.00, 0.00, 0.000, 0.000, 0.000, 10:38:00.378
174, 47.92, 3.43, 0.00, 0.00, 0.000, 0.000, 0.000, 10:38:00.378
175, 46.23, 8.67, 0.00, 0.00, 0.000, 0.000, 0.000, 10:38:00.392
176, 49.70, 11.17, 0.00, 0.00, 0.000, 0.000, 0.000, 10:38:00.392
177, 49.13, 9.83, 0.00, 0.00, 0.000, 0.000, 0.000, 10:38:00.406
178, 44.91, 3.89, 0.00, 0.00, 0.000, 0.000, 0.000, 10:38:00.407
179, 45.48, 8.50, 0.00, 0.00, 0.000, 0.000, 0.000, 10:38:00.407
180, 45.89, 8.88, 0.00, 0.00, 0.000, 0.000, 0.000, 10:38:00.407
181, 42.75, 10.14, 0.00, 0.00, 0.000, 0.000, 0.000, 10:38:00.421
182, 37.30, 9.51, 0.00, 0.00, 0.000, 0.000, 0.000, 10:38:00.421
183, 42.81, 14.49, 0.00, 0.00, 0.000, 0.000, 0.000, 10:38:00.435
184, 44.49, 12.48, 0.00, 0.00, 0.000, 0.000, 0.000, 10:38:00.436
185, 40.14, 10.63, 0.00, 0.00, 0.000, 0.000, 0.000, 10:38:00.436
186, 38.88, 10.57, 0.00, 0.00, 0.000, 0.000, 0.000, 10:38:00.436
187, 39.31, 12.77, 0.00, 0.00, 0.000, 0.000, 0.000, 10:38:00.451
188, 41.87, 10.82, 0.00, 0.00, 0.000, 0.000, 0.000, 10:38:00.451
189, 39.07, 11.53, 0.00, 0.00, 0.000, 0.000, 0.000, 10:38:00.466
190, 37.55, 3.34, 0.00, 0.00, 0.000, 0.000, 0.000, 10:38:00.466
191, 38.86, 5.44, 0.00, 0.00, 0.000, 0.000, 0.000, 10:38:00.466
192, 40.77, 8.87, 0.00, 0.00, 0.000, 0.000, 0.000, 10:38:00.466
193, 43.14, 7.12, 0.00, 0.00, 0.000, 0.000, 0.000, 10:38:00.495
194, 36.60, 8.18, 0.00, 0.00, 0.000, 0.000, 0.000, 10:38:00.496
195, 38.28, 5.76, 0.00, 0.00, 0.000, 0.000, 0.000, 10:38:00.496
196, 40.14, 10.23, 0.00, 0.00, 0.000, 0.000, 0.000, 10:38:00.496
197, 40.30, 9.29, 0.00, 0.00, 0.000, 0.000, 0.000, 10:38:00.497
198, 35.68, 8.13, 0.00, 0.00, 0.000, 0.000, 0.000, 10:38:00.497
199, 35.74, 10.70, 0.00, 0.00, 0.000, 0.000, 0.000, 10:38:00.511
200, 38.72, 11.69, 0.00, 0.00, 0.000, 0.000, 0.000, 10:38:00.511
0, 39.07, 9.18, 0.00, 0.00, 0.000, 0.000, 0.000, 10:38:00.512
1, 37.97, 6.95, 0.00, 0.00, 0.000, 0.000, 0.000, 10:38:00.526
2, 37.56, 6.39, 0.00, 0.00, 0.000, 0.000, 0.000, 10:38:00.526
3, 39.48, 7.96, 0.00, 0.00, 0.000, 0.000, 0.000, 10:38:00.542
4, 38.86, 5.26, 0.00, 0.00, 0.000, 0.000, 0.000, 10:38:00.542
5, 38.20, 8.02, 0.00, 0.00, 0.000, 0.000, 0.000, 10:38:00.542
6, 38.49, 5.96, 0.00, 0.00, 0.000, 0.000, 0.000, 10:38:00.543
7, 43.52, 8.19, 0.00, 0.00, 0.000, 0.000, 0.000, 10:38:00.556
8, 41.41, 8.35, 0.00, 0.00, 0.000, 0.000, 0.000, 10:38:00.557
9, 37.85, 5.26, 0.00, 0.00, 0.000, 0.000, 0.000, 10:38:00.571
10, 35.37, 7.45, 0.00, 0.00, 0.000, 0.000, 0.000, 10:38:00.571
11, 41.30, 8.58, 0.00, 0.00, 0.000, 0.000, 0.000, 10:38:00.572
12, 40.85, 10.02, 0.00, 0.00, 0.000, 0.000, 0.000, 10:38:00.572
13, 37.84, 5.19, 0.00, 0.00, 0.000, 0.000, 0.000, 10:38:00.594
14, 37.49, 11.06, 0.00, 0.00, 0.000, 0.000, 0.000, 10:38:00.595
15, 37.13, 9.82, 0.00, 0.00, 0.000, 0.000, 0.000, 10:38:00.601
16, 36.87, 9.07, 0.00, 0.00, 0.000, 0.000, 0.000, 10:38:00.601
17, 36.70, 7.67, 0.00, 0.00, 0.000, 0.000, 0.000, 10:38:00.602
18, 36.99, 7.36, 0.00, 0.00, 0.000, 0.000, 0.000, 10:38:00.602
19, 40.48, 11.88, 0.00, 0.00, 0.000, 0.000, 0.000, 10:38:00.616
20, 35.86, 10.83, 0.00, 0.00, 0.000, 0.000, 0.000, 10:38:00.616
21, 32.94, 5.36, 0.00, 0.00, 0.000, 0.000, 0.000, 10:38:00.630
22, 33.56, 5.10, 0.00, 0.00, 0.000, 0.000, 0.000, 10:38:00.630
23, 38.48, 13.62, 0.00, 0.00, 0.000, 0.000, 0.000, 10:38:00.632
24, 35.76, 11.21, 0.00, 0.00, 0.000, 0.000, 0.000, 10:38:00.632
25, 34.91, 6.76, 0.00, 0.00, 0.000, 0.000, 0.000, 10:38:00.646
26, 30.73, 10.57, 0.00, 0.00, 0.000, 0.000, 0.000, 10:38:00.646
27, 34.10, 10.87, 0.00, 0.00, 0.000, 0.000, 0.000, 10:38:00.661
28, 33.40, 10.11, 0.00, 0.00, 0.000, 0.000, 0.000, 10:38:00.661
29, 28.45, 8.65, 0.00, 0.00, 0.000, 0.000, 0.000, 10:38:00.661
30, 31.51, 10.05, 0.00, 0.00, 0.000, 0.000, 0.000, 10:38:00.661
31, 31.77, 13.85, 0.00, 0.00, 0.000, 0.000, 0.000, 10:38:00.676
32, 35.14, 12.62, 0.00, 0.00, 0.000, 0.000, 0.000, 10:38:00.676
33, 30.76, 9.49, 0.00, 0.00, 0.000, 0.000, 0.000, 10:38:00.691
34, 29.83, 8.03, 0.00, 0.00, 0.000, 0.000, 0.000, 10:38:00.692
35, 30.71, 10.97, 0.00, 0.00, 0.000, 0.000, 0.000, 10:38:00.692
36, 35.33, 9.32, 0.00, 0.00, 0.000, 0.000, 0.000, 10:38:00.692
37, 31.58, 3.76, 0.00, 0.00, 0.000, 0.000, 0.000, 10:38:00.706
38, 34.96, 9.88, 0.00, 0.00, 0.000, 0.000, 0.000, 10:38:00.706
39, 33.09, 6.95, 0.00, 0.00, 0.000, 0.000, 0.000, 10:38:00.720
40, 35.07, 8.37, 0.00, 0.00, 0.000, 0.000, 0.000, 10:38:00.721
41, 31.54, 5.54, 0.00, 0.00, 0.000, 0.000, 0.000, 10:38:00.721
42, 30.85, 6.76, 0.00, 0.00, 0.000, 0.000, 0.000, 10:38:00.721
43, 31.93, 13.54, 0.00, 0.00, 0.000, 0.000, 0.000, 10:38:00.738
44, 30.76, 12.41, 0.00, 0.00, 0.000, 0.000, 0.000, 10:38:00.738
45, 28.47, 5.36, 0.00, 0.00, 0.000, 0.000, 0.000, 10:38:00.752
46, 29.97, 3.48, 0.00, 0.00, 0.000, 0.000, 0.000, 10:38:00.752
47, 30.05, 7.37, 0.00, 0.00, 0.000, 0.000, 0.000, 10:38:00.752
48, 26.95, 9.34, 0.00, 0.00, 0.000, 0.000, 0.000, 10:38:00.752
49, 26.31, 5.49, 0.00, 0.00, 0.000, 0.000, 0.000, 10:38:00.766
50, 27.33, 10.73, 0.00, 0.00, 0.000, 0.000, 0.000, 10:38:00.766
51, 27.23, 8.09, 0.00, 0.00, 0.000, 0.000, 0.000, 10:38:00.780
52, 32.37, 9.16, 0.00, 0.00, 0.000, 0.000, 0.000, 10:38:00.780
53, 28.69, 7.24, 0.00, 0.00, 0.000, 0.000, 0.000, 10:38:00.781
54, 32.34, 7.83, 0.00, 0.00, 0.000, 0.000, 0.000, 10:38:00.781
55, 33.61, 15.39, 0.00, 0.00, 0.000, 0.000, 0.000, 10:38:00.796
56, 33.55, 13.31, 0.00, 0.00, 0.000, 0.000, 0.000, 10:38:00.796
57, 36.67, 7.35, 0.00, 0.00, 0.000, 0.000, 0.000, 10:38:00.810
58, 34.04, 10.79, 0.00, 0.00, 0.000, 0.000, 0.000, 10:38:00.811
59, 39.56, 14.63, 0.00, 0.00, 0.000, 0.000, 0.000, 10:38:00.825
60, 38.14, 9.79, 0.00, 0.00, 0.000, 0.000, 0.000, 10:38:00.825
61, 31.97, 7.80, 0.00, 0.00, 0.000, 0.000, 0.000, 10:38:00.826
62, 34.12, 13.04, 0.00, 0.00, 0.000, 0.000, 0.000, 10:38:00.826
63, 38.59, 18.10, 0.00, 0.00, 0.000, 0.000, 0.000, 10:38:00.841
64, 35.15, 10.53, 0.00, 0.00, 0.000, 0.000, 0.000, 10:38:00.841
65, 33.37, 5.55, 0.00, 0.00, 0.000, 0.000, 0.000, 10:38:00.842
66, 35.05, 7.42, 0.00, 0.00, 0.000, 0.000, 0.000, 10:38:00.842
67, 38.80, 12.65, 0.00, 0.00, 0.000, 0.000, 0.000, 10:38:00.856
68, 31.41, 9.70, 0.00, 0.00, 0.000, 0.000, 0.000, 10:38:00.856
69, 33.49, 5.55, 0.00, 0.00, 0.000, 0.000, 0.000, 10:38:00.871
70, 33.57, 10.53, 0.00, 0.00, 0.000, 0.000, 0.000, 10:38:00.872
71, 34.98, 12.01, 0.00, 0.00, 0.000, 0.000, 0.000, 10:38:00.872
72, 34.81, 7.47, 0.00, 0.00, 0.000, 0.000, 0.000, 10:38:00.872
73, 33.39, 7.54, 0.00, 0.00, 0.000, 0.000, 0.000, 10:38:00.888
74, 33.22, 12.61, 0.00, 0.00, 0.000, 0.000, 0.000, 10:38:00.888
75, 32.63, 10.15, 0.00, 0.00, 0.000, 0.000, 0.000, 10:38:00.901
76, 33.35, 10.98, 0.00, 0.00, 0.000, 0.000, 0.000, 10:38:00.902
77, 32.17, 11.84, 0.00, 0.00, 0.000, 0.000, 0.000, 10:38:00.902
78, 35.78, 8.38, 0.00, 0.00, 0.000, 0.000, 0.000, 10:38:00.902
79, 36.42, 15.12, 0.00, 0.00, 0.000, 0.000, 0.000, 10:38:00.931
80, 39.24, 12.27, 0.00, 0.00, 0.000, 0.000, 0.000, 10:38:00.931
81, 36.83, 5.28, 0.00, 0.00, 0.000, 0.000, 0.000, 10:38:00.931
82, 35.51, 8.05, 0.00, 0.00, 0.000, 0.000, 0.000, 10:38:00.932
83, 39.90, 18.30, 0.00, 0.00, 0.000, 0.000, 0.000, 10:38:00.932
84, 41.50, 7.11, 0.00, 0.00, 0.000, 0.000, 0.000, 10:38:00.932
85, 40.36, 6.70, 0.00, 0.00, 0.000, 0.000, 0.000, 10:38:00.946
86, 41.52, 10.36, 0.00, 0.00, 0.000, 0.000, 0.000, 10:38:00.946
87, 44.01, 9.03, 0.00, 0.00, 0.000, 0.000, 0.000, 10:38:00.961
88, 44.22, 8.96, 0.00, 0.00, 0.000, 0.000, 0.000, 10:38:00.962
89, 41.62, 10.63, 0.00, 0.00, 0.000, 0.000, 0.000, 10:38:00.962
90, 40.69, 13.69, 0.00, 0.00, 0.000, 0.000, 0.000, 10:38:00.962
91, 43.14, 14.72, 0.00, 0.00, 0.000, 0.000, 0.000, 10:38:00.975
92, 40.70, 13.89, 0.00, 0.00, 0.000, 0.000, 0.000, 10:38:00.976
93, 38.58, 8.94, 0.00, 0.00, 0.000, 0.000, 0.000, 10:38:00.992
94, 41.29, 11.27, 0.00, 0.00, 0.000, 0.000, 0.000, 10:38:00.992
95, 41.09, 13.10, 0.00, 0.00, 0.000, 0.000, 0.000, 10:38:00.993
96, 37.88, 14.17, 0.00, 0.00, 0.000, 0.000, 0.000, 10:38:00.993
97, 34.93, 7.15, 0.00, 0.00, 0.000, 0.000, 0.000, 10:38:01.006
98, 36.15, 13.20, 0.00, 0.00, 0.000, 0.000, 0.000, 10:38:01.006
99, 38.71, 10.45, 0.00, 0.00, 0.000, 0.000, 0.000, 10:38:01.022
100, 38.88, 12.71, 0.00, 0.00, 0.000, 0.000, 0.000, 10:38:01.022
101, 38.45, 7.12, 0.00, 0.00, 0.000, 0.000, 0.000, 10:38:01.022
102, 35.22, 6.64, 0.00, 0.00, 0.000, 0.000, 0.000, 10:38:01.022
103, 42.37, 10.64, 0.00, 0.00, 0.000, 0.000, 0.000, 10:38:01.036
104, 41.78, 6.91, 0.00, 0.00, 0.000, 0.000, 0.000, 10:38:01.036
105, 37.43, 5.47, 0.00, 0.00, 0.000, 0.000, 0.000, 10:38:01.051
106, 43.14, 5.88, 0.00, 0.00, 0.000, 0.000, 0.000, 10:38:01.051
107, 43.79, 9.15, 0.00, 0.00, 0.000, 0.000, 0.000, 10:38:01.051
108, 47.19, 7.55, 0.00, 0.00, 0.000, 0.000, 0.000, 10:38:01.051
109, 43.21, 8.13, 0.00, 0.00, 0.000, 0.000, 0.000, 10:38:01.066
110, 44.75, 6.91, 0.00, 0.00, 0.000, 0.000, 0.000, 10:38:01.066
111, 44.42, 8.56, 0.00, 0.00, 0.000, 0.000, 0.000, 10:38:01.080
112, 44.46, 6.96, 0.00, 0.00, 0.000, 0.000, 0.000, 10:38:01.081
113, 43.14, 8.62, 0.00, 0.00, 0.000, 0.000, 0.000, 10:38:01.081
114, 44.11, 7.23, 0.00, 0.00, 0.000, 0.000, 0.000, 10:38:01.081
115, 43.67, 8.07, 0.00, 0.00, 0.000, 0.000, 0.000, 10:38:01.096
116, 42.93, 9.56, 0.00, 0.00, 0.000, 0.000, 0.000, 10:38:01.096
117, 43.22, 6.98, 0.00, 0.00, 0.000, 0.000, 0.000, 10:38:01.112
118, 42.86, 9.10, 0.00, 0.00, 0.000, 0.000, 0.000, 10:38:01.112
119, 47.35, 10.38, 0.00, 0.00, 0.000, 0.000, 0.000, 10:38:01.113
120, 47.61, 8.09, 0.00, 0.00, 0.000, 0.000, 0.000, 10:38:01.113
121, 46.72, 5.86, 0.00, 0.00, 0.000, 0.000, 0.000, 10:38:01.126
122, 48.74, 7.39, 0.00, 0.00, 0.000, 0.000, 0.000, 10:38:01.127
123, 45.67, 9.47, 0.00, 0.00, 0.000, 0.000, 0.000, 10:38:01.141
124, 46.42, 4.98, 0.00, 0.00, 0.000, 0.000, 0.000, 10:38:01.141
125, 44.39, 12.60, 0.00, 0.00, 0.000, 0.000, 0.000, 10:38:01.142
126, 48.20, 5.68, 0.00, 0.00, 0.000, 0.000, 0.000, 10:38:01.142
127, 48.27, 9.71, 0.00, 0.00, 0.000, 0.000, 0.000, 10:38:01.156
128, 44.97, 8.42, 0.00, 0.00, 0.000, 0.000, 0.000, 10:38:01.157
129, 42.94, 9.32, 0.00, 0.00, 0.000, 0.000, 0.000, 10:38:01.171
130, 43.44, 12.13, 0.00, 0.00, 0.000, 0.000, 0.000, 10:38:01.171
131, 44.15, 14.64, 0.00, 0.00, 0.000, 0.000, 0.000, 10:38:01.172
132, 41.01, 7.25, 0.00, 0.00, 0.000, 0.000, 0.000, 10:38:01.172
133, 39.42, 8.67, 0.00, 0.00, 0.000, 0.000, 0.000, 10:38:01.186
134, 38.78, 11.18, 0.00, 0.00, 0.000, 0.000, 0.000, 10:38:01.186
135, 43.40, 16.04, 0.00, 0.00, 0.000, 0.000, 0.000, 10:38:01.202
136, 43.08, 12.79, 0.00, 0.00, 0.000, 0.000, 0.000, 10:38:01.202
137, 34.76, 6.04, 0.00, 0.00, 0.000, 0.000, 0.000, 10:38:01.202
138, 35.85, 8.37, 0.00, 0.00, 0.000, 0.000, 0.000, 10:38:01.203
139, 37.26, 12.36, 0.00, 0.00, 0.000, 0.000, 0.000, 10:38:01.216
140, 36.70, 8.93, 0.00, 0.00, 0.000, 0.000, 0.000, 10:38:01.216
141, 36.60, 5.23, 0.00, 0.00, 0.000, 0.000, 0.000, 10:38:01.231
142, 38.78, 11.37, 0.00, 0.00, 0.000, 0.000, 0.000, 10:38:01.231
143, 40.49, 11.86, 0.00, 0.00, 0.000, 0.000, 0.000, 10:38:01.232
144, 40.84, 10.18, 0.00, 0.00, 0.000, 0.000, 0.000, 10:38:01.232
145, 37.59, 9.41, 0.00, 0.00, 0.000, 0.000, 0.000, 10:38:01.246
146, 41.53, 16.51, 0.00, 0.00, 0.000, 0.000, 0.000, 10:38:01.246
147, 42.00, 14.28, 0.00, 0.00, 0.000, 0.000, 0.000, 10:38:01.261
148, 42.67, 9.64, 0.00, 0.00, 0.000, 0.000, 0.000, 10:38:01.261
149, 38.20, 10.48, 0.00, 0.00, 0.000, 0.000, 0.000, 10:38:01.261
150, 40.27, 9.82, 0.00, 0.00, 0.000, 0.000, 0.000, 10:38:01.261
151, 40.00, 10.44, 0.00, 0.00, 0.000, 0.000, 0.000, 10:38:01.283
152, 38.86, 10.76, 0.00, 0.00, 0.000, 0.000, 0.000, 10:38:01.283
153, 37.96, 6.37, 0.00, 0.00, 0.000, 0.000, 0.000, 10:38:01.292
154, 37.67, 11.12, 0.00, 0.00, 0.000, 0.000, 0.000, 10:38:01.292
155, 41.26, 14.85, 0.00, 0.00, 0.000, 0.000, 0.000, 10:38:01.293
156, 41.16, 11.65, 0.00, 0.00, 0.000, 0.000, 0.000, 10:38:01.293
157, 40.02, 6.75, 0.00, 0.00, 0.000, 0.000, 0.000, 10:38:01.306
158, 36.74, 12.01, 0.00, 0.00, 0.000, 0.000, 0.000, 10:38:01.306
159, 42.79, 11.97, 0.00, 0.00, 0.000, 0.000, 0.000, 10:38:01.321
160, 41.77, 8.05, 0.00, 0.00, 0.000, 0.000, 0.000, 10:38:01.321
161, 40.53, 6.01, 0.00, 0.00, 0.000, 0.000, 0.000, 10:38:01.321
162, 38.06, 9.70, 0.00, 0.00, 0.000, 0.000, 0.000, 10:38:01.322
163, 42.19, 15.31, 0.00, 0.00, 0.000, 0.000, 0.000, 10:38:01.337
164, 42.12, 10.91, 0.00, 0.00, 0.000, 0.000, 0.000, 10:38:01.337
165, 39.32, 10.84, 0.00, 0.00, 0.000, 0.000, 0.000, 10:38:01.351
166, 41.01, 6.07, 0.00, 0.00, 0.000, 0.000, 0.000, 10:38:01.351
167, 41.87, 11.53, 0.00, 0.00, 0.000, 0.000, 0.000, 10:38:01.352
168, 38.28, 10.54, 0.00, 0.00, 0.000, 0.000, 0.000, 10:38:01.352
169, 34.88, 6.77, 0.00, 0.00, 0.000, 0.000, 0.000, 10:38:01.366
170, 38.43, 9.58, 0.00, 0.00, 0.000, 0.000, 0.000, 10:38:01.367
171, 41.84, 13.67, 0.00, 0.00, 0.000, 0.000, 0.000, 10:38:01.380
172, 38.94, 7.56, 0.00, 0.00, 0.000, 0.000, 0.000, 10:38:01.381
173, 40.29, 6.92, 0.00, 0.00, 0.000, 0.000, 0.000, 10:38:01.381
174, 40.26, 7.84, 0.00, 0.00, 0.000, 0.000, 0.000, 10:38:01.381
175, 43.15, 7.98, 0.00, 0.00, 0.000, 0.000, 0.000, 10:38:01.396
176, 42.72, 7.66, 0.00, 0.00, 0.000, 0.000, 0.000, 10:38:01.396
177, 40.39, 8.04, 0.00, 0.00, 0.000, 0.000, 0.000, 10:38:01.410
178, 38.04, 6.38, 0.00, 0.00, 0.000, 0.000, 0.000, 10:38:01.411
179, 41.31, 11.03, 0.00, 0.00, 0.000, 0.000, 0.000, 10:38:01.411
180, 41.21, 8.61, 0.00, 0.00, 0.000, 0.000, 0.000, 10:38:01.411
181, 40.19, 6.53, 0.00, 0.00, 0.000, 0.000, 0.000, 10:38:01.426
182, 41.51, 9.79, 0.00, 0.00, 0.000, 0.000, 0.000, 10:38:01.427
183, 44.13, 10.29, 0.00, 0.00, 0.000, 0.000, 0.000, 10:38:01.442
184, 43.73, 7.95, 0.00, 0.00, 0.000, 0.000, 0.000, 10:38:01.442
185, 40.74, 5.45, 0.00, 0.00, 0.000, 0.000, 0.000, 10:38:01.443
186, 44.70, 7.75, 0.00, 0.00, 0.000, 0.000, 0.000, 10:38:01.443
187, 43.96, 11.51, 0.00, 0.00, 0.000, 0.000, 0.000, 10:38:01.456
188, 48.36, 7.97, 0.00, 0.00, 0.000, 0.000, 0.000, 10:38:01.456
189, 44.70, 5.71, 0.00, 0.00, 0.000, 0.000, 0.000, 10:38:01.471
190, 42.87, 6.28, 0.00, 0.00, 0.000, 0.000, 0.000, 10:38:01.472
191, 44.86, 12.26, 0.00, 0.00, 0.000, 0.000, 0.000, 10:38:01.472
192, 43.97, 8.33, 0.00, 0.00, 0.000, 0.000, 0.000, 10:38:01.472
193, 41.25, 7.67, 0.00, 0.00, 0.000, 0.000, 0.000, 10:38:01.486
194, 44.07, 13.70, 0.00, 0.00, 0.000, 0.000, 0.000, 10:38:01.487
195, 43.13, 9.78, 0.00, 0.00, 0.000, 0.000, 0.000, 10:38:01.501
196, 43.24, 8.80, 0.00, 0.00, 0.000, 0.000, 0.000, 10:38:01.501
197, 42.93, 7.65, 0.00, 0.00, 0.000, 0.000, 0.000, 10:38:01.501
198, 43.39, 16.28, 0.00, 0.00, 0.000, 0.000, 0.000, 10:38:01.501
199, 40.93, 6.92, 0.00, 0.00, 0.000, 0.000, 0.000, 10:38:01.515
200, 41.68, 7.52, 0.00, 0.00, 0.000, 0.000, 0.000, 10:38:01.515
0, 38.78, 3.77, 0.00, 0.00, 0.000, 0.000, 0.000, 10:38:01.516
1, 35.79, 6.05, 0.00, 0.00, 0.000, 0.000, 0.000, 10:38:01.531
2, 36.85, 14.25, 0.00, 0.00, 0.000, 0.000, 0.000, 10:38:01.531
3, 38.67, 10.47, 0.00, 0.00, 0.000, 0.000, 0.000, 10:38:01.546
4, 37.51, 8.84, 0.00, 0.00, 0.000, 0.000, 0.000, 10:38:01.547
5, 38.77, 11.11, 0.00, 0.00, 0.000, 0.000, 0.000, 10:38:01.547
6, 38.50, 9.68, 0.00, 0.00, 0.000, 0.000, 0.000, 10:38:01.547
7, 41.40, 10.94, 0.00, 0.00, 0.000, 0.000, 0.000, 10:38:01.563
8, 39.68, 9.29, 0.00, 0.00, 0.000, 0.000, 0.000, 10:38:01.564
9, 37.25, 8.11, 0.00, 0.00, 0.000, 0.000, 0.000, 10:38:01.576
10, 39.66, 9.68, 0.00, 0.00, 0.000, 0.000, 0.000, 10:38:01.577
11, 38.09, 10.16, 0.00, 0.00, 0.000, 0.000, 0.000, 10:38:01.577
12, 36.81, 4.63, 0.00, 0.00, 0.000, 0.000, 0.000, 10:38:01.578
13, 39.80, 9.43, 0.00, 0.00, 0.000, 0.000, 0.000, 10:38:01.591
14, 39.64, 11.43, 0.00, 0.00, 0.000, 0.000, 0.000, 10:38:01.592
15, 40.56, 9.85, 0.00, 0.00, 0.000, 0.000, 0.000, 10:38:01.605
16, 39.82, 4.73, 0.00, 0.00, 0.000, 0.000, 0.000, 10:38:01.606
17, 41.16, 3.59, 0.00, 0.00, 0.000, 0.000, 0.000, 10:38:01.606
18, 43.75, 9.07, 0.00, 0.00, 0.000, 0.000, 0.000, 10:38:01.606
19, 41.40, 7.53, 0.00, 0.00, 0.000, 0.000, 0.000, 10:38:01.621
20, 43.01, 4.87, 0.00, 0.00, 0.000, 0.000, 0.000, 10:38:01.621
21, 41.46, 7.33, 0.00, 0.00, 0.000, 0.000, 0.000, 10:38:01.636
22, 41.74, 10.89, 0.00, 0.00, 0.000, 0.000, 0.000, 10:38:01.636
23, 40.71, 10.16, 0.00, 0.00, 0.000, 0.000, 0.000, 10:38:01.637
24, 41.48, 5.08, 0.00, 0.00, 0.000, 0.000, 0.000, 10:38:01.637
25, 44.16, 7.64, 0.00, 0.00, 0.000, 0.000, 0.000, 10:38:01.651
26, 44.19, 9.25, 0.00, 0.00, 0.000, 0.000, 0.000, 10:38:01.651
27, 38.85, 8.15, 0.00, 0.00, 0.000, 0.000, 0.000, 10:38:01.666
28, 41.49, 7.29, 0.00, 0.00, 0.000, 0.000, 0.000, 10:38:01.666
29, 38.86, 9.34, 0.00, 0.00, 0.000, 0.000, 0.000, 10:38:01.666
30, 42.68, 8.47, 0.00, 0.00, 0.000, 0.000, 0.000, 10:38:01.666
31, 44.07, 10.62, 0.00, 0.00, 0.000, 0.000, 0.000, 10:38:01.682
32, 43.25, 4.74, 0.00, 0.00, 0.000, 0.000, 0.000, 10:38:01.683
33, 43.45, 3.95, 0.00, 0.00, 0.000, 0.000, 0.000, 10:38:01.697
34, 45.18, 7.60, 0.00, 0.00, 0.000, 0.000, 0.000, 10:38:01.698
35, 45.22, 5.68, 0.00, 0.00, 0.000, 0.000, 0.000, 10:38:01.711
36, 43.70, 4.97, 0.00, 0.00, 0.000, 0.000, 0.000, 10:38:01.712
37, 43.14, 8.33, 0.00, 0.00, 0.000, 0.000, 0.000, 10:38:01.712
38, 49.62, 8.76, 0.00, 0.00, 0.000, 0.000, 0.000, 10:38:01.712
39, 51.35, 4.72, 0.00, 0.00, 0.000, 0.000, 0.000, 10:38:01.726
40, 47.27, 7.05, 0.00, 0.00, 0.000, 0.000, 0.000, 10:38:01.727
41, 46.43, 9.84, 0.00, 0.00, 0.000, 0.000, 0.000, 10:38:01.727
42, 48.14, 8.35, 0.00, 0.00, 0.000, 0.000, 0.000, 10:38:01.728
43, 46.53, 8.54, 0.00, 0.00, 0.000, 0.000, 0.000, 10:38:01.741
44, 44.25, 7.00, 0.00, 0.00, 0.000, 0.000, 0.000, 10:38:01.742
45, 42.95, 6.74, 0.00, 0.00, 0.000, 0.000, 0.000, 10:38:01.756
46, 44.15, 7.49, 0.00, 0.00, 0.000, 0.000, 0.000, 10:38:01.757
47, 45.50, 9.53, 0.00, 0.00, 0.000, 0.000, 0.000, 10:38:01.763
48, 39.39, 7.31, 0.00, 0.00, 0.000, 0.000, 0.000, 10:38:01.764
49, 40.41, 11.99, 0.00, 0.00, 0.000, 0.000, 0.000, 10:38:01.773
50, 39.65, 11.68, 0.00, 0.00, 0.000, 0.000, 0.000, 10:38:01.773
51, 41.79, 8.98, 0.00, 0.00, 0.000, 0.000, 0.000, 10:38:01.785
52, 39.44, 10.40, 0.00, 0.00, 0.000, 0.000, 0.000, 10:38:01.786
53, 41.67, 10.12, 0.00, 0.00, 0.000, 0.000, 0.000, 10:38:01.786
54, 40.91, 8.04, 0.00, 0.00, 0.000, 0.000, 0.000, 10:38:01.786
55, 42.23, 8.04, 0.00, 0.00, 0.000, 0.000, 0.000, 10:38:01.801
56, 39.61, 4.68, 0.00, 0.00, 0.000, 0.000, 0.000, 10:38:01.801
57, 44.55, 6.04, 0.00, 0.00, 0.000, 0.000, 0.000, 10:38:01.816
58, 41.15, 7.54, 0.00, 0.00, 0.000, 0.000, 0.000, 10:38:01.816
59, 40.89, 6.31, 0.00, 0.00, 0.000, 0.000, 0.000, 10:38:01.816
60, 39.52, 5.95, 0.00, 0.00, 0.000, 0.000, 0.000, 10:38:01.816
61, 41.66, 5.95, 0.00, 0.00, 0.000, 0.000, 0.000, 10:38:01.831
62, 43.20, 10.64, 0.00, 0.00, 0.000, 0.000, 0.000, 10:38:01.831
63, 41.61, 5.82, 0.00, 0.00, 0.000, 0.000, 0.000, 10:38:01.846
64, 38.79, 4.50, 0.00, 0.00, 0.000, 0.000, 0.000, 10:38:01.846
65, 39.69, 10.53, 0.00, 0.00, 0.000, 0.000, 0.000, 10:38:01.846
66, 41.41, 5.99, 0.00, 0.00, 0.000, 0.000, 0.000, 10:38:01.846
67, 39.10, 7.83, 0.00, 0.00, 0.000, 0.000, 0.000, 10:38:01.876
68, 35.61, 8.35, 0.00, 0.00, 0.000, 0.000, 0.000, 10:38:01.876
69, 39.07, 7.93, 0.00, 0.00, 0.000, 0.000, 0.000, 10:38:01.876
70, 40.13, 7.96, 0.00, 0.00, 0.000, 0.000, 0.000, 10:38:01.877
71, 39.46, 6.63, 0.00, 0.00, 0.000, 0.000, 0.000, 10:38:01.877
72, 37.43, 7.59, 0.00, 0.00, 0.000, 0.000, 0.000, 10:38:01.877
73, 40.41, 5.68, 0.00, 0.00, 0.000, 0.000, 0.000, 10:38:01.891
74, 39.39, 9.23, 0.00, 0.00, 0.000, 0.000, 0.000, 10:38:01.891
75, 39.88, 7.53, 0.00, 0.00, 0.000, 0.000, 0.000, 10:38:01.906
76, 39.82, 7.24, 0.00, 0.00, 0.000, 0.000, 0.000, 10:38:01.906
77, 40.95, 9.07, 0.00, 0.00, 0.000, 0.000, 0.000, 10:38:01.907
78, 43.04, 7.53, 0.00, 0.00, 0.000, 0.000, 0.000, 10:38:01.907
79, 42.71, 4.64, 0.00, 0.00, 0.000, 0.000, 0.000, 10:38:01.921
80, 41.11, 4.57, 0.00, 0.00, 0.000, 0.000, 0.000, 10:38:01.921
81, 41.33, 7.18, 0.00, 0.00, 0.000, 0.000, 0.000, 10:38:01.951
82, 42.50, 9.05, 0.00, 0.00, 0.000, 0.000, 0.000, 10:38:01.951
83, 41.51, 10.87, 0.00, 0.00, 0.000, 0.000, 0.000, 10:38:01.952
84, 42.31, 5.90, 0.00, 0.00, 0.000, 0.000, 0.000, 10:38:01.952
85, 40.81, 5.70, 0.00, 0.00, 0.000, 0.000, 0.000, 10:38:01.952
86, 41.73, 11.90, 0.00, 0.00, 0.000, 0.000, 0.000, 10:38:01.952
87, 40.67, 7.12, 0.00, 0.00, 0.000, 0.000, 0.000, 10:38:01.953
88, 36.50, 3.93, 0.00, 0.00, 0.000, 0.000, 0.000, 10:38:01.953
89, 38.93, 16.74, 0.00, 0.00, 0.000, 0.000, 0.000, 10:38:01.966
90, 39.44, 11.77, 0.00, 0.00, 0.000, 0.000, 0.000, 10:38:01.966
91, 36.99, 12.19, 0.00, 0.00, 0.000, 0.000, 0.000, 10:38:01.980
92, 33.06, 11.22, 0.00, 0.00, 0.000, 0.000, 0.000, 10:38:01.980
93, 35.56, 8.11, 0.00, 0.00, 0.000, 0.000, 0.000, 10:38:01.995
94, 39.51, 11.90, 0.00, 0.00, 0.000, 0.000, 0.000, 10:38:01.995
95, 39.66, 14.06, 0.00, 0.00, 0.000, 0.000, 0.000, 10:38:01.995
96, 32.95, 9.00, 0.00, 0.00, 0.000, 0.000, 0.000, 10:38:01.996
97, 34.15, 11.35, 0.00, 0.00, 0.000, 0.000, 0.000, 10:38:02.010
98, 35.88, 13.11, 0.00, 0.00, 0.000, 0.000, 0.000, 10:38:02.010
99, 34.48, 11.73, 0.00, 0.00, 0.000, 0.000, 0.000, 10:38:02.027
100, 32.18, 6.28, 0.00, 0.00, 0.000, 0.000, 0.000, 10:38:02.027
101, 35.23, 12.42, 0.00, 0.00, 0.000, 0.000, 0.000, 10:38:02.027
102, 38.13, 15.47, 0.00, 0.00, 0.000, 0.000, 0.000, 10:38:02.028
103, 38.10, 8.81, 0.00, 0.00, 0.000, 0.000, 0.000, 10:38:02.041
104, 37.08, 8.04, 0.00, 0.00, 0.000, 0.000, 0.000, 10:38:02.042
105, 35.27, 11.91, 0.00, 0.00, 0.000, 0.000, 0.000, 10:38:02.055
106, 40.82, 13.24, 0.00, 0.00, 0.000, 0.000, 0.000, 10:38:02.056
107, 44.24, 8.58, 0.00, 0.00, 0.000, 0.000, 0.000, 10:38:02.056
108, 43.35, 5.88, 0.00, 0.00, 0.000, 0.000, 0.000, 10:38:02.056
109, 43.30, 7.18, 0.00, 0.00, 0.000, 0.000, 0.000, 10:38:02.072
110, 50.97, 13.42, 0.00, 0.00, 0.000, 0.000, 0.000, 10:38:02.072
111, 50.95, 7.45, 0.00, 0.00, 0.000, 0.000, 0.000, 10:38:02.086
112, 46.60, 9.46, 0.00, 0.00, 0.000, 0.000, 0.000, 10:38:02.086
113, 46.43, 13.72, 0.00, 0.00, 0.000, 0.000, 0.000, 10:38:02.087
114, 51.71, 7.81, 0.00, 0.00, 0.000, 0.000, 0.000, 10:38:02.087
115, 48.62, 11.47, 0.00, 0.00, 0.000, 0.000, 0.000, 10:38:02.101
116, 47.45, 9.60, 0.00, 0.00, 0.000, 0.000, 0.000, 10:38:02.102
117, 49.33, 10.01, 0.00, 0.00, 0.000, 0.000, 0.000, 10:38:02.116
118, 48.10, 9.79, 0.00, 0.00, 0.000, 0.000, 0.000, 10:38:02.116
119, 46.72, 12.24, 0.00, 0.00, 0.000, 0.000, 0.000, 10:38:02.116
120, 43.42, 6.16, 0.00, 0.00, 0.000, 0.000, 0.000, 10:38:02.116
121, 44.31, 10.62, 0.00, 0.00, 0.000, 0.000, 0.000, 10:38:02.131
122, 47.32, 12.47, 0.00, 0.00, 0.000, 0.000, 0.000, 10:38:02.131
123, 49.42, 10.15, 0.00, 0.00, 0.000, 0.000, 0.000, 10:38:02.146
124, 45.16, 7.61, 0.00, 0.00, 0.000, 0.000, 0.000, 10:38:02.146
125, 49.28, 10.31, 0.00, 0.00, 0.000, 0.000, 0.000, 10:38:02.146
126, 51.06, 10.69, 0.00, 0.00, 0.000, 0.000, 0.000, 10:38:02.146
127, 48.45, 6.43, 0.00, 0.00, 0.000, 0.000, 0.000, 10:38:02.162
128, 44.99, 9.03, 0.00, 0.00, 0.000, 0.000, 0.000, 10:38:02.162
129, 44.57, 11.85, 0.00, 0.00, 0.000, 0.000, 0.000, 10:38:02.176
130, 48.13, 13.83, 0.00, 0.00, 0.000, 0.000, 0.000, 10:38:02.176
131, 45.69, 13.07, 0.00, 0.00, 0.000, 0.000, 0.000, 10:38:02.176
132, 43.90, 4.65, 0.00, 0.00, 0.000, 0.000, 0.000, 10:38:02.176
133, 47.81, 9.23, 0.00, 0.00, 0.000, 0.000, 0.000, 10:38:02.191
134, 49.27, 14.67, 0.00, 0.00, 0.000, 0.000, 0.000, 10:38:02.192
135, 45.41, 10.52, 0.00, 0.00, 0.000, 0.000, 0.000, 10:38:02.206
136, 45.79, 9.59, 0.00, 0.00, 0.000, 0.000, 0.000, 10:38:02.206
137, 47.11, 10.71, 0.00, 0.00, 0.000, 0.000, 0.000, 10:38:02.206
138, 48.27, 15.53, 0.00, 0.00, 0.000, 0.000, 0.000, 10:38:02.206
139, 47.78, 13.14, 0.00, 0.00, 0.000, 0.000, 0.000, 10:38:02.221
140, 42.28, 10.82, 0.00, 0.00, 0.000, 0.000, 0.000, 10:38:02.221
141, 39.78, 10.88, 0.00, 0.00, 0.000, 0.000, 0.000, 10:38:02.238
142, 43.05, 14.32, 0.00, 0.00, 0.000, 0.000, 0.000, 10:38:02.238
143, 39.64, 12.20, 0.00, 0.00, 0.000, 0.000, 0.000, 10:38:02.239
144, 38.73, 10.55, 0.00, 0.00, 0.000, 0.000, 0.000, 10:38:02.239
145, 36.46, 14.37, 0.00, 0.00, 0.000, 0.000, 0.000, 10:38:02.257
146, 39.36, 12.26, 0.00, 0.00, 0.000, 0.000, 0.000, 10:38:02.258
147, 38.94, 11.32, 0.00, 0.00, 0.000, 0.000, 0.000, 10:38:02.265
148, 37.36, 6.58, 0.00, 0.00, 0.000, 0.000, 0.000, 10:38:02.266
149, 39.74, 9.55, 0.00, 0.00, 0.000, 0.000, 0.000, 10:38:02.266
150, 40.22, 11.05, 0.00, 0.00, 0.000, 0.000, 0.000, 10:38:02.266
151, 41.52, 9.41, 0.00, 0.00, 0.000, 0.000, 0.000, 10:38:02.281
152, 36.80, 7.78, 0.00, 0.00, 0.000, 0.000, 0.000, 10:38:02.281
153, 36.62, 7.39, 0.00, 0.00, 0.000, 0.000, 0.000, 10:38:02.295
154, 45.48, 10.62, 0.00, 0.00, 0.000, 0.000, 0.000, 10:38:02.295
155, 41.00, 9.58, 0.00, 0.00, 0.000, 0.000, 0.000, 10:38:02.297
156, 37.46, 6.64, 0.00, 0.00, 0.000, 0.000, 0.000, 10:38:02.297
157, 34.49, 8.14, 0.00, 0.00, 0.000, 0.000, 0.000, 10:38:02.311
158, 36.31, 10.65, 0.00, 0.00, 0.000, 0.000, 0.000, 10:38:02.311
159, 35.17, 7.31, 0.00, 0.00, 0.000, 0.000, 0.000, 10:38:02.326
160, 31.36, 7.70, 0.00, 0.00, 0.000, 0.000, 0.000, 10:38:02.326
161, 34.72, 10.61, 0.00, 0.00, 0.000, 0.000, 0.000, 10:38:02.326
162, 38.56, 14.36, 0.00, 0.00, 0.000, 0.000, 0.000, 10:38:02.326
163, 39.64, 9.71, 0.00, 0.00, 0.000, 0.000, 0.000, 10:38:02.340
164, 37.37, 8.16, 0.00, 0.00, 0.000, 0.000, 0.000, 10:38:02.341
165, 40.56, 10.26, 0.00, 0.00, 0.000, 0.000, 0.000, 10:38:02.355
166, 43.11, 12.27, 0.00, 0.00, 0.000, 0.000, 0.000, 10:38:02.355
167, 41.91, 10.80, 0.00, 0.00, 0.000, 0.000, 0.000, 10:38:02.356
168, 42.74, 5.39, 0.00, 0.00, 0.000, 0.000, 0.000, 10:38:02.356
169, 41.38, 10.99, 0.00, 0.00, 0.000, 0.000, 0.000, 10:38:02.422
170, 42.91, 13.45, 0.00, 0.00, 0.000, 0.000, 0.000, 10:38:02.422
171, 42.94, 7.05, 0.00, 0.00, 0.000, 0.000, 0.000, 10:38:02.423
172, 45.21, 5.31, 0.00, 0.00, 0.000, 0.000, 0.000, 10:38:02.423
173, 47.33, 10.01, 0.00, 0.00, 0.000, 0.000, 0.000, 10:38:02.423
174, 49.47, 9.33, 0.00, 0.00, 0.000, 0.000, 0.000, 10:38:02.423
175, 48.95, 8.27, 0.00, 0.00, 0.000, 0.000, 0.000, 10:38:02.424
176, 44.62, 5.84, 0.00, 0.00, 0.000, 0.000, 0.000, 10:38:02.424
177, 46.09, 13.72, 0.00, 0.00, 0.000, 0.000, 0.000, 10:38:02.431
178, 43.27, 11.76, 0.00, 0.00, 0.000, 0.000, 0.000, 10:38:02.431
179, 46.46, 11.20, 0.00, 0.00, 0.000, 0.000, 0.000, 10:38:02.431
180, 43.82, 6.83, 0.00, 0.00, 0.000, 0.000, 0.000, 10:38:02.431
181, 46.40, 8.14, 0.00, 0.00, 0.000, 0.000, 0.000, 10:38:02.432
182, 49.67, 15.77, 0.00, 0.00, 0.000, 0.000, 0.000, 10:38:02.432
183, 47.38, 8.21, 0.00, 0.00, 0.000, 0.000, 0.000, 10:38:02.433
184, 45.94, 2.61, 0.00, 0.00, 0.000, 0.000, 0.000, 10:38:02.433
185, 46.00, 9.47, 0.00, 0.00, 0.000, 0.000, 0.000, 10:38:02.446
186, 48.58, 10.76, 0.00, 0.00, 0.000, 0.000, 0.000, 10:38:02.446
187, 46.92, 3.95, 0.00, 0.00, 0.000, 0.000, 0.000, 10:38:02.460
188, 43.00, 6.45, 0.00, 0.00, 0.000, 0.000, 0.000, 10:38:02.461
189, 45.82, 11.42, 0.00, 0.00, 0.000, 0.000, 0.000, 10:38:02.480
190, 49.08, 10.89, 0.00, 0.00, 0.000, 0.000, 0.000, 10:38:02.480
191, 47.30, 10.81, 0.00, 0.00, 0.000, 0.000, 0.000, 10:38:02.480
192, 43.98, 4.53, 0.00, 0.00, 0.000, 0.000, 0.000, 10:38:02.480
193, 44.30, 10.11, 0.00, 0.00, 0.000, 0.000, 0.000, 10:38:02.506
194, 45.45, 13.16, 0.00, 0.00, 0.000, 0.000, 0.000, 10:38:02.506
195, 45.02, 7.04, 0.00, 0.00, 0.000, 0.000, 0.000, 10:38:02.506
196, 43.09, 8.18, 0.00, 0.00, 0.000, 0.000, 0.000, 10:38:02.506
197, 45.40, 8.13, 0.00, 0.00, 0.000, 0.000, 0.000, 10:38:02.507
198, 44.73, 12.76, 0.00, 0.00, 0.000, 0.000, 0.000, 10:38:02.507
199, 44.73, 8.96, 0.00, 0.00, 0.000, 0.000, 0.000, 10:38:02.520
200, 42.72, 8.85, 0.00, 0.00, 0.000, 0.000, 0.000, 10:38:02.520
0, 46.92, 8.50, 0.00, 0.00, 0.000, 0.000, 0.000, 10:38:02.521
1, 46.99, 10.56, 0.00, 0.00, 0.000, 0.000, 0.000, 10:38:02.535
2, 44.36, 10.74, 0.00, 0.00, 0.000, 0.000, 0.000, 10:38:02.536
3, 43.14, 8.53, 0.00, 0.00, 0.000, 0.000, 0.000, 10:38:02.550
4, 40.16, 15.18, 0.00, 0.00, 0.000, 0.000, 0.000, 10:38:02.550
5, 43.29, 11.67, 0.00, 0.00, 0.000, 0.000, 0.000, 10:38:02.560
6, 43.57, 6.05, 0.00, 0.00, 0.000, 0.000, 0.000, 10:38:02.560
7, 42.11, 7.39, 0.00, 0.00, 0.000, 0.000, 0.000, 10:38:02.566
8, 39.74, 9.81, 0.00, 0.00, 0.000, 0.000, 0.000, 10:38:02.566
9, 40.57, 5.03, 0.00, 0.00, 0.000, 0.000, 0.000, 10:38:02.580
10, 42.28, 10.16, 0.00, 0.00, 0.000, 0.000, 0.000, 10:38:02.580
11, 38.23, 6.97, 0.00, 0.00, 0.000, 0.000, 0.000, 10:38:02.581
12, 41.00, 8.86, 0.00, 0.00, 0.000, 0.000, 0.000, 10:38:02.581
13, 41.83, 7.49, 0.00, 0.00, 0.000, 0.000, 0.000, 10:38:02.596
14, 44.41, 9.50, 0.00, 0.00, 0.000, 0.000, 0.000, 10:38:02.596
15, 41.05, 4.31, 0.00, 0.00, 0.000, 0.000, 0.000, 10:38:02.610
16, 40.34, 7.14, 0.00, 0.00, 0.000, 0.000, 0.000, 10:38:02.610
17, 41.42, 8.25, 0.00, 0.00, 0.000, 0.000, 0.000, 10:38:02.611
18, 40.12, 5.59, 0.00, 0.00, 0.000, 0.000, 0.000, 10:38:02.611
19, 37.41, 5.54, 0.00, 0.00, 0.000, 0.000, 0.000, 10:38:02.625
20, 40.02, 5.94, 0.00, 0.00, 0.000, 0.000, 0.000, 10:38:02.626
21, 40.81, 7.01, 0.00, 0.00, 0.000, 0.000, 0.000, 10:38:02.640
22, 42.30, 10.26, 0.00, 0.00, 0.000, 0.000, 0.000, 10:38:02.640
23, 40.28, 4.67, 0.00, 0.00, 0.000, 0.000, 0.000, 10:38:02.641
24, 40.73, 7.50, 0.00, 0.00, 0.000, 0.000, 0.000, 10:38:02.641
25, 40.64, 0.29, 0.00, 0.00, 0.000, 0.000, 0.000, 10:38:02.655
26, 40.89, 5.32, 0.00, 0.00, 0.000, 0.000, 0.000, 10:38:02.655
27, 39.49, 4.51, 0.00, 0.00, 0.000, 0.000, 0.000, 10:38:02.670
28, 41.96, 4.86, 0.00, 0.00, 0.000, 0.000, 0.000, 10:38:02.670
29, 46.75, 6.80, 0.00, 0.00, 0.000, 0.000, 0.000, 10:38:02.670
30, 46.74, 4.93, 0.00, 0.00, 0.000, 0.000, 0.000, 10:38:02.671
31, 44.00, 5.05, 0.00, 0.00, 0.000, 0.000, 0.000, 10:38:02.685
32, 44.49, 7.58, 0.00, 0.00, 0.000, 0.000, 0.000, 10:38:02.685
33, 43.47, 5.35, 0.00, 0.00, 0.000, 0.000, 0.000, 10:38:02.700
34, 41.81, 5.17, 0.00, 0.00, 0.000, 0.000, 0.000, 10:38:02.700
35, 39.39, 7.16, 0.00, 0.00, 0.000, 0.000, 0.000, 10:38:02.701
36, 39.35, 6.73, 0.00, 0.00, 0.000, 0.000, 0.000, 10:38:02.701
37, 41.74, 7.38, 0.00, 0.00, 0.000, 0.000, 0.000, 10:38:02.715
38, 39.61, 9.54, 0.00, 0.00, 0.000, 0.000, 0.000, 10:38:02.715
39, 36.29, 5.14, 0.00, 0.00, 0.000, 0.000, 0.000, 10:38:02.732
40, 36.83, 5.80, 0.00, 0.00, 0.000, 0.000, 0.000, 10:38:02.732
41, 42.31, 10.67, 0.00, 0.00, 0.000, 0.000, 0.000, 10:38:02.733
42, 38.78, 5.87, 0.00, 0.00, 0.000, 0.000, 0.000, 10:38:02.733
43, 38.28, 5.07, 0.00, 0.00, 0.000, 0.000, 0.000, 10:38:02.746
44, 38.25, 5.65, 0.00, 0.00, 0.000, 0.000, 0.000, 10:38:02.746
45, 43.12, 5.93, 0.00, 0.00, 0.000, 0.000, 0.000, 10:38:02.761
46, 41.81, 4.09, 0.00, 0.00, 0.000, 0.000, 0.000, 10:38:02.761
47, 42.55, 6.04, 0.00, 0.00, 0.000, 0.000, 0.000, 10:38:02.761
48, 40.61, 9.26, 0.00, 0.00, 0.000, 0.000, 0.000, 10:38:02.762
49, 40.17, 8.72, 0.00, 0.00, 0.000, 0.000, 0.000, 10:38:02.776
50, 42.09, 6.83, 0.00, 0.00, 0.000, 0.000, 0.000, 10:38:02.776
51, 40.11, 6.33, 0.00, 0.00, 0.000, 0.000, 0.000, 10:38:02.791
52, 41.48, 5.69, 0.00, 0.00, 0.000, 0.000, 0.000, 10:38:02.791
53, 42.12, 7.24, 0.00, 0.00, 0.000, 0.000, 0.000, 10:38:02.792
54, 42.52, 9.36, 0.00, 0.00, 0.000, 0.000, 0.000, 10:38:02.792
55, 42.17, 5.09, 0.00, 0.00, 0.000, 0.000, 0.000, 10:38:02.806
56, 42.95, 6.37, 0.00, 0.00, 0.000, 0.000, 0.000, 10:38:02.806
57, 48.61, 9.32, 0.00, 0.00, 0.000, 0.000, 0.000, 10:38:02.820
58, 49.06, 6.21, 0.00, 0.00, 0.000, 0.000, 0.000, 10:38:02.821
59, 47.52, 2.56, 0.00, 0.00, 0.000, 0.000, 0.000, 10:38:02.821
60, 46.58, 7.85, 0.00, 0.00, 0.000, 0.000, 0.000, 10:38:02.821
61, 50.01, 10.11, 0.00, 0.00, 0.000, 0.000, 0.000, 10:38:02.842
62, 49.21, 6.56, 0.00, 0.00, 0.000, 0.000, 0.000, 10:38:02.842
63, 47.42, 1.70, 0.00, 0.00, 0.000, 0.000, 0.000, 10:38:02.850
64, 48.16, 5.22, 0.00, 0.00, 0.000, 0.000, 0.000, 10:38:02.850
65, 51.15, 7.43, 0.00, 0.00, 0.000, 0.000, 0.000, 10:38:02.851
66, 47.85, 4.10, 0.00, 0.00, 0.000, 0.000, 0.000, 10:38:02.851
67, 47.11, 3.81, 0.00, 0.00, 0.000, 0.000, 0.000, 10:38:02.866
68, 47.92, 8.13, 0.00, 0.00, 0.000, 0.000, 0.000, 10:38:02.866
69, 54.06, 10.74, 0.00, 0.00, 0.000, 0.000, 0.000, 10:38:02.880
70, 49.68, 5.13, 0.00, 0.00, 0.000, 0.000, 0.000, 10:38:02.880
71, 53.18, 7.58, 0.00, 0.00, 0.000, 0.000, 0.000, 10:38:02.881
72, 51.73, 9.75, 0.00, 0.00, 0.000, 0.000, 0.000, 10:38:02.881
73, 54.35, 11.33, 0.00, 0.00, 0.000, 0.000, 0.000, 10:38:02.896
74, 51.00, 8.84, 0.00, 0.00, 0.000, 0.000, 0.000, 10:38:02.896
75, 43.95, 3.06, 0.00, 0.00, 0.000, 0.000, 0.000, 10:38:02.910
76, 49.53, 9.61, 0.00, 0.00, 0.000, 0.000, 0.000, 10:38:02.911
77, 46.19, 13.41, 0.00, 0.00, 0.000, 0.000, 0.000, 10:38:02.911
78, 46.32, 10.45, 0.00, 0.00, 0.000, 0.000, 0.000, 10:38:02.911
79, 41.99, 4.44, 0.00, 0.00, 0.000, 0.000, 0.000, 10:38:02.926
80, 46.28, 10.30, 0.00, 0.00, 0.000, 0.000, 0.000, 10:38:02.926
81, 48.92, 16.26, 0.00, 0.00, 0.000, 0.000, 0.000, 10:38:02.940
82, 45.19, 9.32, 0.00, 0.00, 0.000, 0.000, 0.000, 10:38:02.940
83, 44.20, 7.32, 0.00, 0.00, 0.000, 0.000, 0.000, 10:38:02.941
84, 44.28, 9.26, 0.00, 0.00, 0.000, 0.000, 0.000, 10:38:02.941
85, 50.27, 9.73, 0.00, 0.00, 0.000, 0.000, 0.000, 10:38:02.955
86, 47.09, 11.67, 0.00, 0.00, 0.000, 0.000, 0.000, 10:38:02.955
87, 44.04, 6.02, 0.00, 0.00, 0.000, 0.000, 0.000, 10:38:02.970
88, 48.39, 11.86, 0.00, 0.00, 0.000, 0.000, 0.000, 10:38:02.971
89, 48.69, 11.98, 0.00, 0.00, 0.000, 0.000, 0.000, 10:38:02.971
90, 49.06, 8.42, 0.00, 0.00, 0.000, 0.000, 0.000, 10:38:02.971
91, 44.98, 4.40, 0.00, 0.00, 0.000, 0.000, 0.000, 10:38:02.985
92, 45.81, 11.57, 0.00, 0.00, 0.000, 0.000, 0.000, 10:38:02.985
93, 49.24, 12.14, 0.00, 0.00, 0.000, 0.000, 0.000, 10:38:03.000
94, 42.30, 8.60, 0.00, 0.00, 0.000, 0.000, 0.000, 10:38:03.000
95, 41.50, 6.36, 0.00, 0.00, 0.000, 0.000, 0.000, 10:38:03.000
96, 39.86, 12.08, 0.00, 0.00, 0.000, 0.000, 0.000, 10:38:03.001
97, 42.76, 12.88, 0.00, 0.00, 0.000, 0.000, 0.000, 10:38:03.015
98, 43.20, 6.58, 0.00, 0.00, 0.000, 0.000, 0.000, 10:38:03.016
99, 42.59, 4.47, 0.00, 0.00, 0.000, 0.000, 0.000, 10:38:03.030
100, 46.16, 8.72, 0.00, 0.00, 0.000, 0.000, 0.000, 10:38:03.031
101, 44.08, 11.65, 0.00, 0.00, 0.000, 0.000, 0.000, 10:38:03.031
102, 44.22, 7.66, 0.00, 0.00, 0.000, 0.000, 0.000, 10:38:03.031
103, 38.79, 9.42, 0.00, 0.00, 0.000, 0.000, 0.000, 10:38:03.045
104, 42.78, 11.92, 0.00, 0.00, 0.000, 0.000, 0.000, 10:38:03.045
105, 46.21, 8.18, 0.00, 0.00, 0.000, 0.000, 0.000, 10:38:03.061
106, 46.31, 8.06, 0.00, 0.00, 0.000, 0.000, 0.000, 10:38:03.061
107, 43.48, 8.60, 0.00, 0.00, 0.000, 0.000, 0.000, 10:38:03.061
108, 44.31, 9.85, 0.00, 0.00, 0.000, 0.000, 0.000, 10:38:03.061
109, 47.65, 10.91, 0.00, 0.00, 0.000, 0.000, 0.000, 10:38:03.075
110, 44.67, 8.87, 0.00, 0.00, 0.000, 0.000, 0.000, 10:38:03.075
111, 44.79, 7.23, 0.00, 0.00, 0.000, 0.000, 0.000, 10:38:03.091
112, 44.52, 9.68, 0.00, 0.00, 0.000, 0.000, 0.000, 10:38:03.092
113, 46.67, 8.67, 0.00, 0.00, 0.000, 0.000, 0.000, 10:38:03.092
114, 44.80, 7.09, 0.00, 0.00, 0.000, 0.000, 0.000, 10:38:03.092
115, 43.69, 6.60, 0.00, 0.00, 0.000, 0.000, 0.000, 10:38:03.106
116, 42.06, 10.60, 0.00, 0.00, 0.000, 0.000, 0.000, 10:38:03.106
117, 44.46, 7.50, 0.00, 0.00, 0.000, 0.000, 0.000, 10:38:03.121
118, 48.54, 9.01, 0.00, 0.00, 0.000, 0.000, 0.000, 10:38:03.121
119, 39.83, 10.05, 0.00, 0.00, 0.000, 0.000, 0.000, 10:38:03.122
120, 42.50, 8.53, 0.00, 0.00, 0.000, 0.000, 0.000, 10:38:03.122
121, 47.94, 9.56, 0.00, 0.00, 0.000, 0.000, 0.000, 10:38:03.136
122, 48.50, 9.21, 0.00, 0.00, 0.000, 0.000, 0.000, 10:38:03.136
123, 43.03, 1.82, 0.00, 0.00, 0.000, 0.000, 0.000, 10:38:03.150
124, 42.99, 8.95, 0.00, 0.00, 0.000, 0.000, 0.000, 10:38:03.151
125, 44.08, 11.51, 0.00, 0.00, 0.000, 0.000, 0.000, 10:38:03.151
126, 40.33, 7.48, 0.00, 0.00, 0.000, 0.000, 0.000, 10:38:03.151
127, 40.27, 5.30, 0.00, 0.00, 0.000, 0.000, 0.000, 10:38:03.165
128, 43.60, 7.98, 0.00, 0.00, 0.000, 0.000, 0.000, 10:38:03.166
129, 44.27, 10.05, 0.00, 0.00, 0.000, 0.000, 0.000, 10:38:03.181
130, 45.45, 7.23, 0.00, 0.00, 0.000, 0.000, 0.000, 10:38:03.181
131, 44.90, 8.96, 0.00, 0.00, 0.000, 0.000, 0.000, 10:38:03.181
132, 45.67, 5.38, 0.00, 0.00, 0.000, 0.000, 0.000, 10:38:03.181
133, 50.20, 11.69, 0.00, 0.00, 0.000, 0.000, 0.000, 10:38:03.196
134, 48.64, 6.47, 0.00, 0.00, 0.000, 0.000, 0.000, 10:38:03.196
135, 43.78, 4.60, 0.00, 0.00, 0.000, 0.000, 0.000, 10:38:03.211
136, 47.37, 6.81, 0.00, 0.00, 0.000, 0.000, 0.000, 10:38:03.211
137, 50.69, 11.69, 0.00, 0.00, 0.000, 0.000, 0.000, 10:38:03.211
138, 43.70, 9.97, 0.00, 0.00, 0.000, 0.000, 0.000, 10:38:03.211
139, 39.59, 7.07, 0.00, 0.00, 0.000, 0.000, 0.000, 10:38:03.226
140, 43.39, 9.96, 0.00, 0.00, 0.000, 0.000, 0.000, 10:38:03.226
141, 47.35, 8.57, 0.00, 0.00, 0.000, 0.000, 0.000, 10:38:03.241
142, 43.11, 11.17, 0.00, 0.00, 0.000, 0.000, 0.000, 10:38:03.241
143, 43.12, 7.73, 0.00, 0.00, 0.000, 0.000, 0.000, 10:38:03.241
144, 41.06, 8.24, 0.00, 0.00, 0.000, 0.000, 0.000, 10:38:03.241
145, 45.26, 10.07, 0.00, 0.00, 0.000, 0.000, 0.000, 10:38:03.270
146, 44.59, 8.79, 0.00, 0.00, 0.000, 0.000, 0.000, 10:38:03.271
147, 41.56, 5.97, 0.00, 0.00, 0.000, 0.000, 0.000, 10:38:03.271
148, 39.74, 12.75, 0.00, 0.00, 0.000, 0.000, 0.000, 10:38:03.271
149, 43.78, 11.78, 0.00, 0.00, 0.000, 0.000, 0.000, 10:38:03.272
150, 41.68, 9.20, 0.00, 0.00, 0.000, 0.000, 0.000, 10:38:03.272
151, 40.38, 12.11, 0.00, 0.00, 0.000, 0.000, 0.000, 10:38:03.285
152, 40.53, 13.75, 0.00, 0.00, 0.000, 0.000, 0.000, 10:38:03.286
153, 41.07, 21.12, 0.00, 0.00, 0.000, 0.000, 0.000, 10:38:03.300
154, 38.16, 9.93, 0.00, 0.00, 0.000, 0.000, 0.000, 10:38:03.300
155, 31.13, 6.27, 0.00, 0.00, 0.000, 0.000, 0.000, 10:38:03.301
156, 29.79, 8.67, 0.00, 0.00, 0.000, 0.000, 0.000, 10:38:03.301
157, 34.12, 14.52, 0.00, 0.00, 0.000, 0.000, 0.000, 10:38:03.315
158, 34.74, 10.73, 0.00, 0.00, 0.000, 0.000, 0.000, 10:38:03.315
159, 31.79, 4.87, 0.00, 0.00, 0.000, 0.000, 0.000, 10:38:03.330
160, 32.62, 6.43, 0.00, 0.00, 0.000, 0.000, 0.000, 10:38:03.330
161, 38.22, 6.36, 0.00, 0.00, 0.000, 0.000, 0.000, 10:38:03.338
162, 35.49, 8.72, 0.00, 0.00, 0.000, 0.000, 0.000, 10:38:03.338
163, 36.01, 5.39, 0.00, 0.00, 0.000, 0.000, 0.000, 10:38:03.345
164, 37.62, 7.47, 0.00, 0.00, 0.000, 0.000, 0.000, 10:38:03.345
165, 41.08, 5.67, 0.00, 0.00, 0.000, 0.000, 0.000, 10:38:03.360
166, 37.86, 6.44, 0.00, 0.00, 0.000, 0.000, 0.000, 10:38:03.360
167, 39.68, 5.82, 0.00, 0.00, 0.000, 0.000, 0.000, 10:38:03.361
168, 38.66, 5.61, 0.00, 0.00, 0.000, 0.000, 0.000, 10:38:03.361
169, 41.31, 6.85, 0.00, 0.00, 0.000, 0.000, 0.000, 10:38:03.375
170, 41.98, 9.22, 0.00, 0.00, 0.000, 0.000, 0.000, 10:38:03.376
171, 41.95, 3.74, 0.00, 0.00, 0.000, 0.000, 0.000, 10:38:03.390
172, 44.40, 4.49, 0.00, 0.00, 0.000, 0.000, 0.000, 10:38:03.390
173, 45.13, 9.86, 0.00, 0.00, 0.000, 0.000, 0.000, 10:38:03.391
174, 44.47, 8.00, 0.00, 0.00, 0.000, 0.000, 0.000, 10:38:03.391
175, 39.94, 5.39, 0.00, 0.00, 0.000, 0.000, 0.000, 10:38:03.405
176, 40.87, 9.38, 0.00, 0.00, 0.000, 0.000, 0.000, 10:38:03.405
177, 45.09, 9.66, 0.00, 0.00, 0.000, 0.000, 0.000, 10:38:03.420
178, 42.88, 6.43, 0.00, 0.00, 0.000, 0.000, 0.000, 10:38:03.420
179, 45.71, 5.48, 0.00, 0.00, 0.000, 0.000, 0.000, 10:38:03.420
180, 38.78, 6.53, 0.00, 0.00, 0.000, 0.000, 0.000, 10:38:03.420
181, 46.22, 10.69, 0.00, 0.00, 0.000, 0.000, 0.000, 10:38:03.435
182, 44.35, 4.80, 0.00, 0.00, 0.000, 0.000, 0.000, 10:38:03.435
183, 43.79, 2.59, 0.00, 0.00, 0.000, 0.000, 0.000, 10:38:03.450
184, 43.59, 6.23, 0.00, 0.00, 0.000, 0.000, 0.000, 10:38:03.450
185, 43.92, 10.66, 0.00, 0.00, 0.000, 0.000, 0.000, 10:38:03.451
186, 45.25, 5.70, 0.00, 0.00, 0.000, 0.000, 0.000, 10:38:03.451
187, 46.25, 5.63, 0.00, 0.00, 0.000, 0.000, 0.000, 10:38:03.465
188, 48.48, 11.30, 0.00, 0.00, 0.000, 0.000, 0.000, 10:38:03.465
189, 48.25, 10.89, 0.00, 0.00, 0.000, 0.000, 0.000, 10:38:03.481
190, 49.10, 5.36, 0.00, 0.00, 0.000, 0.000, 0.000, 10:38:03.481
191, 46.66, 3.23, 0.00, 0.00, 0.000, 0.000, 0.000, 10:38:03.481
192, 48.52, 7.37, 0.00, 0.00, 0.000, 0.000, 0.000, 10:38:03.481
193, 47.44, 7.69, 0.00, 0.00, 0.000, 0.000, 0.000, 10:38:03.496
194, 46.39, 10.56, 0.00, 0.00, 0.000, 0.000, 0.000, 10:38:03.496
195, 44.87, 6.36, 0.00, 0.00, 0.000, 0.000, 0.000, 10:38:03.511
196, 44.78, 10.36, 0.00, 0.00, 0.000, 0.000, 0.000, 10:38:03.511
197, 47.86, 14.34, 0.00, 0.00, 0.000, 0.000, 0.000, 10:38:03.511
198, 45.37, 10.61, 0.00, 0.00, 0.000, 0.000, 0.000, 10:38:03.511
199, 44.28, 12.89, 0.00, 0.00, 0.000, 0.000, 0.000, 10:38:03.528
200, 45.25, 10.52, 0.00, 0.00, 0.000, 0.000, 0.000, 10:38:03.528
0, 48.30, 12.57, 0.00, 0.00, 0.000, 0.000, 0.000, 10:38:03.528
1, 45.06, 9.51, 0.00, 0.00, 0.000, 0.000, 0.000, 10:38:03.541
2, 45.30, 7.07, 0.00, 0.00, 0.000, 0.000, 0.000, 10:38:03.541
3, 48.47, 9.40, 0.00, 0.00, 0.000, 0.000, 0.000, 10:38:03.557
4, 51.52, 13.76, 0.00, 0.00, 0.000, 0.000, 0.000, 10:38:03.557
5, 45.78, 12.13, 0.00, 0.00, 0.000, 0.000, 0.000, 10:38:03.557
6, 46.54, 8.18, 0.00, 0.00, 0.000, 0.000, 0.000, 10:38:03.557
7, 46.09, 11.01, 0.00, 0.00, 0.000, 0.000, 0.000, 10:38:03.571
8, 44.52, 11.90, 0.00, 0.00, 0.000, 0.000, 0.000, 10:38:03.571
9, 46.02, 11.13, 0.00, 0.00, 0.000, 0.000, 0.000, 10:38:03.586
10, 42.51, 8.45, 0.00, 0.00, 0.000, 0.000, 0.000, 10:38:03.586
11, 40.64, 12.99, 0.00, 0.00, 0.000, 0.000, 0.000, 10:38:03.586
12, 40.93, 16.85, 0.00, 0.00, 0.000, 0.000, 0.000, 10:38:03.586
13, 38.61, 15.02, 0.00, 0.00, 0.000, 0.000, 0.000, 10:38:03.600
14, 37.17, 7.73, 0.00, 0.00, 0.000, 0.000, 0.000, 10:38:03.600
15, 38.22, 9.21, 0.00, 0.00, 0.000, 0.000, 0.000, 10:38:03.616
16, 40.36, 11.40, 0.00, 0.00, 0.000, 0.000, 0.000, 10:38:03.616
17, 40.32, 10.08, 0.00, 0.00, 0.000, 0.000, 0.000, 10:38:03.616
18, 40.20, 1.66, 0.00, 0.00, 0.000, 0.000, 0.000, 10:38:03.616
19, 42.43, 9.05, 0.00, 0.00, 0.000, 0.000, 0.000, 10:38:03.630
20, 43.89, 14.69, 0.00, 0.00, 0.000, 0.000, 0.000, 10:38:03.630
21, 42.02, 8.31, 0.00, 0.00, 0.000, 0.000, 0.000, 10:38:03.645
22, 41.37, 6.25, 0.00, 0.00, 0.000, 0.000, 0.000, 10:38:03.645
23, 41.26, 7.62, 0.00, 0.00, 0.000, 0.000, 0.000, 10:38:03.646
24, 40.89, 7.52, 0.00, 0.00, 0.000, 0.000, 0.000, 10:38:03.646
25, 46.27, 5.00, 0.00, 0.00, 0.000, 0.000, 0.000, 10:38:03.660
26, 43.29, 5.11, 0.00, 0.00, 0.000, 0.000, 0.000, 10:38:03.660
27, 42.17, 4.76, 0.00, 0.00, 0.000, 0.000, 0.000, 10:38:03.675
28, 45.42, 12.85, 0.00, 0.00, 0.000, 0.000, 0.000, 10:38:03.676
29, 41.84, 10.19, 0.00, 0.00, 0.000, 0.000, 0.000, 10:38:03.676
30, 38.95, 7.82, 0.00, 0.00, 0.000, 0.000, 0.000, 10:38:03.676
31, 40.43, 13.76, 0.00, 0.00, 0.000, 0.000, 0.000, 10:38:03.690
32, 41.97, 9.51, 0.00, 0.00, 0.000, 0.000, 0.000, 10:38:03.691
33, 44.18, 7.50, 0.00, 0.00, 0.000, 0.000, 0.000, 10:38:03.705
34, 40.74, 6.43, 0.00, 0.00, 0.000, 0.000, 0.000, 10:38:03.705
35, 42.03, 10.12, 0.00, 0.00, 0.000, 0.000, 0.000, 10:38:03.705
36, 44.45, 5.68, 0.00, 0.00, 0.000, 0.000, 0.000, 10:38:03.706
37, 43.08, 6.46, 0.00, 0.00, 0.000, 0.000, 0.000, 10:38:03.720
38, 43.35, 9.02, 0.00, 0.00, 0.000, 0.000, 0.000, 10:38:03.720
39, 44.07, 14.90, 0.00, 0.00, 0.000, 0.000, 0.000, 10:38:03.735
40, 44.91, 7.61, 0.00, 0.00, 0.000, 0.000, 0.000, 10:38:03.735
41, 45.51, 7.63, 0.00, 0.00, 0.000, 0.000, 0.000, 10:38:03.736
42, 39.21, 9.21, 0.00, 0.00, 0.000, 0.000, 0.000, 10:38:03.736
43, 41.48, 12.01, 0.00, 0.00, 0.000, 0.000, 0.000, 10:38:03.750
44, 42.25, 9.13, 0.00, 0.00, 0.000, 0.000, 0.000, 10:38:03.750
45, 40.30, 13.54, 0.00, 0.00, 0.000, 0.000, 0.000, 10:38:03.765
46, 38.85, 8.60, 0.00, 0.00, 0.000, 0.000, 0.000, 10:38:03.765
47, 42.56, 4.70, 0.00, 0.00, 0.000, 0.000, 0.000, 10:38:03.765
48, 43.05, 10.73, 0.00, 0.00, 0.000, 0.000, 0.000, 10:38:03.766
49, 44.31, 13.34, 0.00, 0.00, 0.000, 0.000, 0.000, 10:38:03.780
50, 40.78, 5.28, 0.00, 0.00, 0.000, 0.000, 0.000, 10:38:03.780
51, 43.78, 5.51, 0.00, 0.00, 0.000, 0.000, 0.000, 10:38:03.795
52, 49.35, 6.36, 0.00, 0.00, 0.000, 0.000, 0.000, 10:38:03.796
53, 46.65, 10.16, 0.00, 0.00, 0.000, 0.000, 0.000, 10:38:03.796
54, 45.96, 7.95, 0.00, 0.00, 0.000, 0.000, 0.000, 10:38:03.796
55, 46.79, 6.19, 0.00, 0.00, 0.000, 0.000, 0.000, 10:38:03.810
56, 49.42, 10.64, 0.00, 0.00, 0.000, 0.000, 0.000, 10:38:03.810
57, 49.24, 2.17, 0.00, 0.00, 0.000, 0.000, 0.000, 10:38:03.826
58, 48.41, 6.14, 0.00, 0.00, 0.000, 0.000, 0.000, 10:38:03.826
59, 51.00, 6.36, 0.00, 0.00, 0.000, 0.000, 0.000, 10:38:03.827
60, 53.88, 12.12, 0.00, 0.00, 0.000, 0.000, 0.000, 10:38:03.827
61, 50.60, 4.25, 0.00, 0.00, 0.000, 0.000, 0.000, 10:38:03.841
62, 49.37, 8.36, 0.00, 0.00, 0.000, 0.000, 0.000, 10:38:03.841
63, 51.21, 11.45, 0.00, 0.00, 0.000, 0.000, 0.000, 10:38:03.856
64, 56.90, 8.59, 0.00, 0.00, 0.000, 0.000, 0.000, 10:38:03.856
65, 53.74, 9.12, 0.00, 0.00, 0.000, 0.000, 0.000, 10:38:03.856
66, 48.76, 7.66, 0.00, 0.00, 0.000, 0.000, 0.000, 10:38:03.856
67, 49.33, 6.62, 0.00, 0.00, 0.000, 0.000, 0.000, 10:38:03.871
68, 52.62, 11.53, 0.00, 0.00, 0.000, 0.000, 0.000, 10:38:03.871
69, 52.05, 10.95, 0.00, 0.00, 0.000, 0.000, 0.000, 10:38:03.886
70, 50.90, 7.83, 0.00, 0.00, 0.000, 0.000, 0.000, 10:38:03.886
71, 50.75, 7.78, 0.00, 0.00, 0.000, 0.000, 0.000, 10:38:03.886
72, 48.48, 12.07, 0.00, 0.00, 0.000, 0.000, 0.000, 10:38:03.886
73, 50.04, 12.75, 0.00, 0.00, 0.000, 0.000, 0.000, 10:38:03.901
74, 49.83, 11.67, 0.00, 0.00, 0.000, 0.000, 0.000, 10:38:03.901
75, 49.11, 7.06, 0.00, 0.00, 0.000, 0.000, 0.000, 10:38:03.915
76, 49.44, 10.41, 0.00, 0.00, 0.000, 0.000, 0.000, 10:38:03.916
77, 47.06, 11.72, 0.00, 0.00, 0.000, 0.000, 0.000, 10:38:03.931
78, 51.44, 5.27, 0.00, 0.00, 0.000, 0.000, 0.000, 10:38:03.931
79, 50.23, 11.10, 0.00, 0.00, 0.000, 0.000, 0.000, 10:38:03.931
80, 53.02, 14.78, 0.00, 0.00, 0.000, 0.000, 0.000, 10:38:03.931
81, 50.42, 8.19, 0.00, 0.00, 0.000, 0.000, 0.000, 10:38:03.945
82, 46.73, 2.54, 0.00, 0.00, 0.000, 0.000, 0.000, 10:38:03.945
83, 48.36, 9.91, 0.00, 0.00, 0.000, 0.000, 0.000, 10:38:03.946
84, 53.33, 12.03, 0.00, 0.00, 0.000, 0.000, 0.000, 10:38:03.947
85, 50.69, 10.33, 0.00, 0.00, 0.000, 0.000, 0.000, 10:38:03.961
86, 44.22, 8.55, 0.00, 0.00, 0.000, 0.000, 0.000, 10:38:03.961
87, 45.72, 7.17, 0.00, 0.00, 0.000, 0.000, 0.000, 10:38:03.975
88, 50.77, 16.32, 0.00, 0.00, 0.000, 0.000, 0.000, 10:38:03.976
89, 48.37, 12.31, 0.00, 0.00, 0.000, 0.000, 0.000, 10:38:03.976
90, 43.37, 8.14, 0.00, 0.00, 0.000, 0.000, 0.000, 10:38:03.976
91, 43.12, 12.49, 0.00, 0.00, 0.000, 0.000, 0.000, 10:38:03.991
92, 44.39, 16.00, 0.00, 0.00, 0.000, 0.000, 0.000, 10:38:03.991
93, 45.01, 7.47, 0.00, 0.00, 0.000, 0.000, 0.000, 10:38:04.005
94, 41.77, 9.23, 0.00, 0.00, 0.000, 0.000, 0.000, 10:38:04.006
95, 44.56, 9.08, 0.00, 0.00, 0.000, 0.000, 0.000, 10:38:04.006
96, 44.72, 11.65, 0.00, 0.00, 0.000, 0.000, 0.000, 10:38:04.006
97, 43.91, 8.94, 0.00, 0.00, 0.000, 0.000, 0.000, 10:38:04.020
98, 41.90, 10.58, 0.00, 0.00, 0.000, 0.000, 0.000, 10:38:04.020
99, 41.04, 9.63, 0.00, 0.00, 0.000, 0.000, 0.000, 10:38:04.035
100, 42.05, 9.52, 0.00, 0.00, 0.000, 0.000, 0.000, 10:38:04.035
101, 39.36, 11.66, 0.00, 0.00, 0.000, 0.000, 0.000, 10:38:04.036
102, 35.30, 8.93, 0.00, 0.00, 0.000, 0.000, 0.000, 10:38:04.036
103, 37.17, 8.93, 0.00, 0.00, 0.000, 0.000, 0.000, 10:38:04.050
104, 40.25, 9.90, 0.00, 0.00, 0.000, 0.000, 0.000, 10:38:04.051
105, 41.05, 3.19, 0.00, 0.00, 0.000, 0.000, 0.000, 10:38:04.065
106, 36.66, 7.29, 0.00, 0.00, 0.000, 0.000, 0.000, 10:38:04.065
107, 42.20, 11.33, 0.00, 0.00, 0.000, 0.000, 0.000, 10:38:04.066
108, 42.46, 5.25, 0.00, 0.00, 0.000, 0.000, 0.000, 10:38:04.066
109, 41.77, 6.39, 0.00, 0.00, 0.000, 0.000, 0.000, 10:38:04.080
110, 42.14, 6.37, 0.00, 0.00, 0.000, 0.000, 0.000, 10:38:04.080
111, 41.45, 6.54, 0.00, 0.00, 0.000, 0.000, 0.000, 10:38:04.095
112, 45.16, 11.39, 0.00, 0.00, 0.000, 0.000, 0.000, 10:38:04.096
113, 44.44, 9.13, 0.00, 0.00, 0.000, 0.000, 0.000, 10:38:04.096
114, 43.84, 6.75, 0.00, 0.00, 0.000, 0.000, 0.000, 10:38:04.096
115, 42.42, 8.29, 0.00, 0.00, 0.000, 0.000, 0.000, 10:38:04.110
116, 45.26, 11.52, 0.00, 0.00, 0.000, 0.000, 0.000, 10:38:04.110
117, 45.34, 8.55, 0.00, 0.00, 0.000, 0.000, 0.000, 10:38:04.125
118, 42.82, 7.43, 0.00, 0.00, 0.000, 0.000, 0.000, 10:38:04.125
119, 42.39, 10.70, 0.00, 0.00, 0.000, 0.000, 0.000, 10:38:04.126
120, 41.63, 9.98, 0.00, 0.00, 0.000, 0.000, 0.000, 10:38:04.126
121, 46.76, 7.82, 0.00, 0.00, 0.000, 0.000, 0.000, 10:38:04.140
122, 41.98, 9.15, 0.00, 0.00, 0.000, 0.000, 0.000, 10:38:04.140
123, 44.29, 6.81, 0.00, 0.00, 0.000, 0.000, 0.000, 10:38:04.171
124, 48.82, 10.71, 0.00, 0.00, 0.000, 0.000, 0.000, 10:38:04.171
125, 45.94, 9.21, 0.00, 0.00, 0.000, 0.000, 0.000, 10:38:04.171
126, 44.07, 8.71, 0.00, 0.00, 0.000, 0.000, 0.000, 10:38:04.172
127, 43.96, 12.14, 0.00, 0.00, 0.000, 0.000, 0.000, 10:38:04.172
128, 45.20, 9.92, 0.00, 0.00, 0.000, 0.000, 0.000, 10:38:04.172
129, 44.99, 6.38, 0.00, 0.00, 0.000, 0.000, 0.000, 10:38:04.173
130, 41.81, 9.28, 0.00, 0.00, 0.000, 0.000, 0.000, 10:38:04.173
131, 42.32, 14.60, 0.00, 0.00, 0.000, 0.000, 0.000, 10:38:04.193
132, 45.45, 9.28, 0.00, 0.00, 0.000, 0.000, 0.000, 10:38:04.193
133, 45.56, 9.06, 0.00, 0.00, 0.000, 0.000, 0.000, 10:38:04.201
134, 40.72, 7.26, 0.00, 0.00, 0.000, 0.000, 0.000, 10:38:04.202
135, 48.59, 10.73, 0.00, 0.00, 0.000, 0.000, 0.000, 10:38:04.216
136, 43.11, 11.93, 0.00, 0.00, 0.000, 0.000, 0.000, 10:38:04.216
137, 44.54, 9.71, 0.00, 0.00, 0.000, 0.000, 0.000, 10:38:04.216
138, 43.17, 6.94, 0.00, 0.00, 0.000, 0.000, 0.000, 10:38:04.216
139, 41.89, 11.21, 0.00, 0.00, 0.000, 0.000, 0.000, 10:38:04.231
140, 42.32, 14.57, 0.00, 0.00, 0.000, 0.000, 0.000, 10:38:04.231
141, 39.56, 7.64, 0.00, 0.00, 0.000, 0.000, 0.000, 10:38:04.246
142, 41.31, 5.08, 0.00, 0.00, 0.000, 0.000, 0.000, 10:38:04.246
143, 44.50, 12.82, 0.00, 0.00, 0.000, 0.000, 0.000, 10:38:04.246
144, 46.58, 7.23, 0.00, 0.00, 0.000, 0.000, 0.000, 10:38:04.246
145, 49.12, 6.54, 0.00, 0.00, 0.000, 0.000, 0.000, 10:38:04.261
146, 46.01, 9.13, 0.00, 0.00, 0.000, 0.000, 0.000, 10:38:04.261
147, 45.49, 6.85, 0.00, 0.00, 0.000, 0.000, 0.000, 10:38:04.276
148, 45.07, 14.22, 0.00, 0.00, 0.000, 0.000, 0.000, 10:38:04.276
149, 41.12, 13.24, 0.00, 0.00, 0.000, 0.000, 0.000, 10:38:04.276
150, 39.88, 11.28, 0.00, 0.00, 0.000, 0.000, 0.000, 10:38:04.276
151, 42.70, 15.24, 0.00, 0.00, 0.000, 0.000, 0.000, 10:38:04.292
152, 45.65, 10.64, 0.00, 0.00, 0.000, 0.000, 0.000, 10:38:04.292
153, 42.30, 8.07, 0.00, 0.00, 0.000, 0.000, 0.000, 10:38:04.307
154, 38.35, 11.20, 0.00, 0.00, 0.000, 0.000, 0.000, 10:38:04.307
155, 39.02, 11.24, 0.00, 0.00, 0.000, 0.000, 0.000, 10:38:04.307
156, 41.25, 14.23, 0.00, 0.00, 0.000, 0.000, 0.000, 10:38:04.307
157, 41.98, 4.96, 0.00, 0.00, 0.000, 0.000, 0.000, 10:38:04.321
158, 39.68, 4.84, 0.00, 0.00, 0.000, 0.000, 0.000, 10:38:04.321
159, 44.51, 8.82, 0.00, 0.00, 0.000, 0.000, 0.000, 10:38:04.336
160, 46.48, 10.60, 0.00, 0.00, 0.000, 0.000, 0.000, 10:38:04.337
161, 45.49, 5.38, 0.00, 0.00, 0.000, 0.000, 0.000, 10:38:04.337
162, 46.22, 5.41, 0.00, 0.00, 0.000, 0.000, 0.000, 10:38:04.337
163, 47.88, 12.21, 0.00, 0.00, 0.000, 0.000, 0.000, 10:38:04.351
164, 45.56, 12.31, 0.00, 0.00, 0.000, 0.000, 0.000, 10:38:04.351
165, 44.25, 9.36, 0.00, 0.00, 0.000, 0.000, 0.000, 10:38:04.367
166, 41.22, 6.92, 0.00, 0.00, 0.000, 0.000, 0.000, 10:38:04.367
167, 43.25, 12.60, 0.00, 0.00, 0.000, 0.000, 0.000, 10:38:04.368
168, 46.64, 11.79, 0.00, 0.00, 0.000, 0.000, 0.000, 10:38:04.368
169, 46.43, 9.92, 0.00, 0.00, 0.000, 0.000, 0.000, 10:38:04.380
170, 44.16, 2.73, 0.00, 0.00, 0.000, 0.000, 0.000, 10:38:04.382
171, 45.45, 7.87, 0.00, 0.00, 0.000, 0.000, 0.000, 10:38:04.397
172, 47.22, 8.44, 0.00, 0.00, 0.000, 0.000, 0.000, 10:38:04.397
173, 46.20, 12.04, 0.00, 0.00, 0.000, 0.000, 0.000, 10:38:04.397
174, 41.39, 9.41, 0.00, 0.00, 0.000, 0.000, 0.000, 10:38:04.398
175, 42.27, 13.28, 0.00, 0.00, 0.000, 0.000, 0.000, 10:38:04.411
176, 45.05, 11.55, 0.00, 0.00, 0.000, 0.000, 0.000, 10:38:04.411
177, 40.19, 11.53, 0.00, 0.00, 0.000, 0.000, 0.000, 10:38:04.425
178, 41.22, 6.83, 0.00, 0.00, 0.000, 0.000, 0.000, 10:38:04.425
179, 42.33, 11.98, 0.00, 0.00, 0.000, 0.000, 0.000, 10:38:04.426
180, 40.16, 14.97, 0.00, 0.00, 0.000, 0.000, 0.000, 10:38:04.426
181, 40.43, 13.97, 0.00, 0.00, 0.000, 0.000, 0.000, 10:38:04.440
182, 39.30, 7.39, 0.00, 0.00, 0.000, 0.000, 0.000, 10:38:04.441
183, 39.71, 7.00, 0.00, 0.00, 0.000, 0.000, 0.000, 10:38:04.455
184, 38.56, 10.20, 0.00, 0.00, 0.000, 0.000, 0.000, 10:38:04.455
185, 38.12, 10.65, 0.00, 0.00, 0.000, 0.000, 0.000, 10:38:04.471
186, 36.37, 8.84, 0.00, 0.00, 0.000, 0.000, 0.000, 10:38:04.471
187, 38.54, 7.80, 0.00, 0.00, 0.000, 0.000, 0.000, 10:38:04.472
188, 40.61, 10.99, 0.00, 0.00, 0.000, 0.000, 0.000, 10:38:04.472
189, 36.69, 9.86, 0.00, 0.00, 0.000, 0.000, 0.000, 10:38:04.486
190, 39.46, 7.08, 0.00, 0.00, 0.000, 0.000, 0.000, 10:38:04.486
191, 39.36, 11.49, 0.00, 0.00, 0.000, 0.000, 0.000, 10:38:04.487
192, 40.19, 12.80, 0.00, 0.00, 0.000, 0.000, 0.000, 10:38:04.487
193, 36.43, 5.78, 0.00, 0.00, 0.000, 0.000, 0.000, 10:38:04.501
194, 38.99, 5.85, 0.00, 0.00, 0.000, 0.000, 0.000, 10:38:04.501
195, 39.01, 10.49, 0.00, 0.00, 0.000, 0.000, 0.000, 10:38:04.515
196, 37.17, 10.27, 0.00, 0.00, 0.000, 0.000, 0.000, 10:38:04.515
197, 33.88, 8.23, 0.00, 0.00, 0.000, 0.000, 0.000, 10:38:04.516
198, 34.02, 6.91, 0.00, 0.00, 0.000, 0.000, 0.000, 10:38:04.516
199, 37.37, 6.52, 0.00, 0.00, 0.000, 0.000, 0.000, 10:38:04.530
200, 37.77, 8.66, 0.00, 0.00, 0.000, 0.000, 0.000, 10:38:04.530
0, 36.13, 6.68, 0.00, 0.00, 0.000, 0.000, 0.000, 10:38:04.530
1, 35.37, 2.13, 0.00, 0.00, 0.000, 0.000, 0.000, 10:38:04.545
2, 44.68, 7.45, 0.00, 0.00, 0.000, 0.000, 0.000, 10:38:04.545
3, 44.07, 8.40, 0.00, 0.00, 0.000, 0.000, 0.000, 10:38:04.560
4, 42.84, 7.10, 0.00, 0.00, 0.000, 0.000, 0.000, 10:38:04.561
5, 38.61, 8.24, 0.00, 0.00, 0.000, 0.000, 0.000, 10:38:04.561
6, 41.54, 8.10, 0.00, 0.00, 0.000, 0.000, 0.000, 10:38:04.561
7, 42.29, 5.19, 0.00, 0.00, 0.000, 0.000, 0.000, 10:38:04.575
8, 42.58, 7.15, 0.00, 0.00, 0.000, 0.000, 0.000, 10:38:04.576
9, 42.40, 2.79, 0.00, 0.00, 0.000, 0.000, 0.000, 10:38:04.590
10, 41.69, 6.95, 0.00, 0.00, 0.000, 0.000, 0.000, 10:38:04.591
11, 49.33, 12.80, 0.00, 0.00, 0.000, 0.000, 0.000, 10:38:04.591
12, 45.38, 4.81, 0.00, 0.00, 0.000, 0.000, 0.000, 10:38:04.591
13, 41.61, 6.12, 0.00, 0.00, 0.000, 0.000, 0.000, 10:38:04.606
14, 47.57, 9.94, 0.00, 0.00, 0.000, 0.000, 0.000, 10:38:04.606
15, 49.31, 8.75, 0.00, 0.00, 0.000, 0.000, 0.000, 10:38:04.620
16, 45.02, 8.13, 0.00, 0.00, 0.000, 0.000, 0.000, 10:38:04.621
17, 46.23, 6.43, 0.00, 0.00, 0.000, 0.000, 0.000, 10:38:04.622
18, 45.38, 7.45, 0.00, 0.00, 0.000, 0.000, 0.000, 10:38:04.622
19, 49.62, 7.85, 0.00, 0.00, 0.000, 0.000, 0.000, 10:38:04.636
20, 46.59, 4.34, 0.00, 0.00, 0.000, 0.000, 0.000, 10:38:04.636
21, 43.55, 5.90, 0.00, 0.00, 0.000, 0.000, 0.000, 10:38:04.651
22, 47.85, 9.72, 0.00, 0.00, 0.000, 0.000, 0.000, 10:38:04.651
23, 47.50, 10.35, 0.00, 0.00, 0.000, 0.000, 0.000, 10:38:04.651
24, 49.84, 6.61, 0.00, 0.00, 0.000, 0.000, 0.000, 10:38:04.651
25, 44.80, 6.81, 0.00, 0.00, 0.000, 0.000, 0.000, 10:38:04.666
26, 43.79, 11.00, 0.00, 0.00, 0.000, 0.000, 0.000, 10:38:04.666
27, 45.75, 9.99, 0.00, 0.00, 0.000, 0.000, 0.000, 10:38:04.680
28, 46.18, 6.44, 0.00, 0.00, 0.000, 0.000, 0.000, 10:38:04.681
29, 39.14, 7.15, 0.00, 0.00, 0.000, 0.000, 0.000, 10:38:04.688
30, 46.63, 13.00, 0.00, 0.00, 0.000, 0.000, 0.000, 10:38:04.688
31, 43.12, 12.19, 0.00, 0.00, 0.000, 0.000, 0.000, 10:38:04.696
32, 39.97, 14.72, 0.00, 0.00, 0.000, 0.000, 0.000, 10:38:04.696
33, 37.33, 8.86, 0.00, 0.00, 0.000, 0.000, 0.000, 10:38:04.710
34, 39.37, 13.71, 0.00, 0.00, 0.000, 0.000, 0.000, 10:38:04.711
35, 42.57, 12.77, 0.00, 0.00, 0.000, 0.000, 0.000, 10:38:04.711
36, 41.28, 10.04, 0.00, 0.00, 0.000, 0.000, 0.000, 10:38:04.711
37, 37.99, 6.02, 0.00, 0.00, 0.000, 0.000, 0.000, 10:38:04.726
38, 40.20, 9.69, 0.00, 0.00, 0.000, 0.000, 0.000, 10:38:04.726
39, 41.14, 10.60, 0.00, 0.00, 0.000, 0.000, 0.000, 10:38:04.741
