%OpenBCI Raw EEG Data
%
%Sample Rate = 200.0 Hz
%First Column = SampleIndex
%Last Column = Timestamp 
%Other Columns = EEG data in microvolts followed by Accel Data (in G) interleaved with Aux Data
0, 22.78, 0.90, 0.00, 0.00, 0.000, 0.000, 0.000, 11:04:32.853
1, 23.57, -4.29, 0.00, 0.00, 0.000, 0.000, 0.000, 11:04:32.866
2, 19.64, 4.53, 0.00, 0.00, 0.000, 0.000, 0.000, 11:04:32.866
3, 21.19, 2.48, 0.00, 0.00, 0.000, 0.000, 0.000, 11:04:32.881
4, 23.52, -1.70, 0.00, 0.00, 0.000, 0.000, 0.000, 11:04:32.881
5, 18.52, -3.75, 0.00, 0.00, 0.000, 0.000, 0.000, 11:04:32.881
6, 23.15, -2.62, 0.00, 0.00, 0.000, 0.000, 0.000, 11:04:32.882
7, 22.30, 3.01, 0.00, 0.00, 0.000, 0.000, 0.000, 11:04:32.896
8, 22.57, 1.25, 0.00, 0.00, 0.000, 0.000, 0.000, 11:04:32.896
9, 20.25, -4.62, 0.00, 0.00, 0.000, 0.000, 0.000, 11:04:32.913
10, 19.29, -1.34, 0.00, 0.00, 0.000, 0.000, 0.000, 11:04:32.913
11, 21.50, 3.13, 0.00, 0.00, 0.000, 0.000, 0.000, 11:04:32.913
12, 22.21, -1.53, 0.00, 0.00, 0.000, 0.000, 0.000, 11:04:32.914
13, 21.88, -3.43, 0.00, 0.00, 0.000, 0.000, 0.000, 11:04:32.926
14, 22.13, 0.81, 0.00, 0.00, 0.000, 0.000, 0.000, 11:04:32.926
15, 20.86, -0.62, 0.00, 0.00, 0.000, 0.000, 0.000, 11:04:32.940
16, 23.31, -2.45, 0.00, 0.00, 0.000, 0.000, 0.000, 11:04:32.940
17, 19.12, -0.47, 0.00, 0.00, 0.000, 0.000, 0.000, 11:04:32.941
18, 22.64, -1.10, 0.00, 0.00, 0.000, 0.000, 0.000, 11:04:32.941
19, 23.92, 2.09, 0.00, 0.00, 0.000, 0.000, 0.000, 11:04:32.962
20, 23.88, 0.57, 0.00, 0.00, 0.000, 0.000, 0.000, 11:04:32.963
21, 23.02, -3.09, 0.00, 0.00, 0.000, 0.000, 0.000, 11:04:32.970
22, 21.92, -1.55, 0.00, 0.00, 0.000, 0.000, 0.000, 11:04:32.971
23, 24.05, 1.38, 0.00, 0.00, 0.000, 0.000, 0.000, 11:04:32.971
24, 21.54, -1.47, 0.00, 0.00, 0.000, 0.000, 0.000, 11:04:32.971
25, 23.56, -1.39, 0.00, 0.00, 0.000, 0.000, 0.000, 11:04:32.985
26, 25.82, 1.25, 0.00, 0.00, 0.000, 0.000, 0.000, 11:04:32.985
27, 26.38, -0.32, 0.00, 0.00, 0.000, 0.000, 0.000, 11:04:33.000
28, 25.13, -1.78, 0.00, 0.00, 0.000, 0.000, 0.000, 11:04:33.000
29, 22.96, -3.42, 0.00, 0.00, 0.000, 0.000, 0.000, 11:04:33.000
30, 25.30, 0.16, 0.00, 0.00, 0.000, 0.000, 0.000, 11:04:33.000
31, 26.07, -0.03, 0.00, 0.00, 0.000, 0.000, 0.000, 11:04:33.016
32, 25.24, 2.62, 0.00, 0.00, 0.000, 0.000, 0.000, 11:04:33.016
33, 26.39, -0.11, 0.00, 0.00, 0.000, 0.000, 0.000, 11:04:33.030
34, 26.63, 1.12, 0.00, 0.00, 0.000, 0.000, 0.000, 11:04:33.031
35, 28.60, 2.95, 0.00, 0.00, 0.000, 0.000, 0.000, 11:04:33.031
36, 31.36, -0.22, 0.00, 0.00, 0.000, 0.000, 0.000, 11:04:33.032
37, 28.26, -0.94, 0.00, 0.00, 0.000, 0.000, 0.000, 11:04:33.046
38, 27.19, -0.42, 0.00, 0.00, 0.000, 0.000, 0.000, 11:04:33.046
39, 27.81, 1.14, 0.00, 0.00, 0.000, 0.000, 0.000, 11:04:33.061
40, 28.00, -2.32, 0.00, 0.00, 0.000, 0.000, 0.000, 11:04:33.061
41, 30.01, -5.16, 0.00, 0.00, 0.000, 0.000, 0.000, 11:04:33.061
42, 28.87, -4.18, 0.00, 0.00, 0.000, 0.000, 0.000, 11:04:33.061
43, 29.27, -2.28, 0.00, 0.00, 0.000, 0.000, 0.000, 11:04:33.076
44, 29.58, 2.34, 0.00, 0.00, 0.000, 0.000, 0.000, 11:04:33.076
45, 26.56, -1.23, 0.00, 0.00, 0.000, 0.000, 0.000, 11:04:33.090
46, 26.35, -0.22, 0.00, 0.00, 0.000, 0.000, 0.000, 11:04:33.090
47, 26.98, 2.29, 0.00, 0.00, 0.000, 0.000, 0.000, 11:04:33.091
48, 29.99, 1.96, 0.00, 0.00, 0.000, 0.000, 0.000, 11:04:33.091
49, 24.70, -1.91, 0.00, 0.00, 0.000, 0.000, 0.000, 11:04:33.106
50, 22.75, 4.24, 0.00, 0.00, 0.000, 0.000, 0.000, 11:04:33.106
51, 24.26, 0.07, 0.00, 0.00, 0.000, 0.000, 0.000, 11:04:33.120
52, 21.05, -2.07, 0.00, 0.00, 0.000, 0.000, 0.000, 11:04:33.120
53, 21.82, -2.70, 0.00, 0.00, 0.000, 0.000, 0.000, 11:04:33.121
54, 18.67, -3.84, 0.00, 0.00, 0.000, 0.000, 0.000, 11:04:33.121
55, 24.89, 2.25, 0.00, 0.00, 0.000, 0.000, 0.000, 11:04:33.136
56, 21.63, -0.11, 0.00, 0.00, 0.000, 0.000, 0.000, 11:04:33.136
57, 18.34, -3.90, 0.00, 0.00, 0.000, 0.000, 0.000, 11:04:33.150
58, 23.67, -3.62, 0.00, 0.00, 0.000, 0.000, 0.000, 11:04:33.150
59, 24.97, 2.02, 0.00, 0.00, 0.000, 0.000, 0.000, 11:04:33.151
60, 25.68, -1.72, 0.00, 0.00, 0.000, 0.000, 0.000, 11:04:33.151
61, 23.01, -3.80, 0.00, 0.00, 0.000, 0.000, 0.000, 11:04:33.166
62, 25.27, -3.12, 0.00, 0.00, 0.000, 0.000, 0.000, 11:04:33.166
63, 24.01, -2.86, 0.00, 0.00, 0.000, 0.000, 0.000, 11:04:33.180
64, 25.29, -2.58, 0.00, 0.00, 0.000, 0.000, 0.000, 11:04:33.180
65, 27.42, -2.99, 0.00, 0.00, 0.000, 0.000, 0.000, 11:04:33.181
66, 24.25, -5.42, 0.00, 0.00, 0.000, 0.000, 0.000, 11:04:33.181
67, 30.34, -4.82, 0.00, 0.00, 0.000, 0.000, 0.000, 11:04:33.195
68, 27.89, -1.33, 0.00, 0.00, 0.000, 0.000, 0.000, 11:04:33.196
69, 26.93, -4.60, 0.00, 0.00, 0.000, 0.000, 0.000, 11:04:33.210
70, 28.68, -4.71, 0.00, 0.00, 0.000, 0.000, 0.000, 11:04:33.210
71, 30.93, -2.71, 0.00, 0.00, 0.000, 0.000, 0.000, 11:04:33.211
72, 27.71, -1.71, 0.00, 0.00, 0.000, 0.000, 0.000, 11:04:33.211
73, 28.09, -2.07, 0.00, 0.00, 0.000, 0.000, 0.000, 11:04:33.232
74, 31.09, 0.47, 0.00, 0.00, 0.000, 0.000, 0.000, 11:04:33.232
75, 31.33, -3.70, 0.00, 0.00, 0.000, 0.000, 0.000, 11:04:33.240
76, 31.37, -5.11, 0.00, 0.00, 0.000, 0.000, 0.000, 11:04:33.240
77, 29.53, 3.33, 0.00, 0.00, 0.000, 0.000, 0.000, 11:04:33.240
78, 28.60, 2.48, 0.00, 0.00, 0.000, 0.000, 0.000, 11:04:33.240
79, 29.13, 1.29, 0.00, 0.00, 0.000, 0.000, 0.000, 11:04:33.255
80, 28.92, -1.25, 0.00, 0.00, 0.000, 0.000, 0.000, 11:04:33.255
81, 25.78, -1.85, 0.00, 0.00, 0.000, 0.000, 0.000, 11:04:33.270
82, 28.03, -1.05, 0.00, 0.00, 0.000, 0.000, 0.000, 11:04:33.270
83, 31.49, 2.07, 0.00, 0.00, 0.000, 0.000, 0.000, 11:04:33.270
84, 30.02, 2.40, 0.00, 0.00, 0.000, 0.000, 0.000, 11:04:33.271
85, 27.24, -3.54, 0.00, 0.00, 0.000, 0.000, 0.000, 11:04:33.285
86, 26.27, -0.70, 0.00, 0.00, 0.000, 0.000, 0.000, 11:04:33.286
87, 29.50, 0.22, 0.00, 0.00, 0.000, 0.000, 0.000, 11:04:33.300
88, 27.87, -2.13, 0.00, 0.00, 0.000, 0.000, 0.000, 11:04:33.300
89, 23.88, -2.10, 0.00, 0.00, 0.000, 0.000, 0.000, 11:04:33.301
90, 25.16, -0.33, 0.00, 0.00, 0.000, 0.000, 0.000, 11:04:33.301
91, 25.74, 2.33, 0.00, 0.00, 0.000, 0.000, 0.000, 11:04:33.315
92, 25.42, 1.79, 0.00, 0.00, 0.000, 0.000, 0.000, 11:04:33.316
93, 22.07, -3.32, 0.00, 0.00, 0.000, 0.000, 0.000, 11:04:33.330
94, 27.13, -1.29, 0.00, 0.00, 0.000, 0.000, 0.000, 11:04:33.331
95, 25.48, 7.72, 0.00, 0.00, 0.000, 0.000, 0.000, 11:04:33.331
96, 25.26, -2.53, 0.00, 0.00, 0.000, 0.000, 0.000, 11:04:33.331
97, 22.15, -5.07, 0.00, 0.00, 0.000, 0.000, 0.000, 11:04:33.346
98, 24.28, 0.64, 0.00, 0.00, 0.000, 0.000, 0.000, 11:04:33.346
99, 24.73, -1.11, 0.00, 0.00, 0.000, 0.000, 0.000, 11:04:33.360
100, 30.05, -3.09, 0.00, 0.00, 0.000, 0.000, 0.000, 11:04:33.360
101, 24.10, -3.40, 0.00, 0.00, 0.000, 0.000, 0.000, 11:04:33.361
102, 24.97, -0.15, 0.00, 0.00, 0.000, 0.000, 0.000, 11:04:33.361
103, 25.81, -2.93, 0.00, 0.00, 0.000, 0.000, 0.000, 11:04:33.375
104, 26.30, -3.43, 0.00, 0.00, 0.000, 0.000, 0.000, 11:04:33.376
105, 25.79, -7.21, 0.00, 0.00, 0.000, 0.000, 0.000, 11:04:33.390
106, 22.56, -2.70, 0.00, 0.00, 0.000, 0.000, 0.000, 11:04:33.390
107, 22.50, 4.77, 0.00, 0.00, 0.000, 0.000, 0.000, 11:04:33.391
108, 24.18, -3.48, 0.00, 0.00, 0.000, 0.000, 0.000, 11:04:33.391
109, 24.08, -7.12, 0.00, 0.00, 0.000, 0.000, 0.000, 11:04:33.406
110, 21.59, -2.91, 0.00, 0.00, 0.000, 0.000, 0.000, 11:04:33.406
111, 25.10, 0.60, 0.00, 0.00, 0.000, 0.000, 0.000, 11:04:33.420
112, 24.58, -3.76, 0.00, 0.00, 0.000, 0.000, 0.000, 11:04:33.420
113, 23.47, -3.29, 0.00, 0.00, 0.000, 0.000, 0.000, 11:04:33.436
114, 28.36, -6.91, 0.00, 0.00, 0.000, 0.000, 0.000, 11:04:33.436
115, 28.60, -1.33, 0.00, 0.00, 0.000, 0.000, 0.000, 11:04:33.436
116, 28.23, -1.76, 0.00, 0.00, 0.000, 0.000, 0.000, 11:04:33.436
117, 25.35, -7.90, 0.00, 0.00, 0.000, 0.000, 0.000, 11:04:33.450
118, 25.00, -5.34, 0.00, 0.00, 0.000, 0.000, 0.000, 11:04:33.451
119, 24.30, -5.51, 0.00, 0.00, 0.000, 0.000, 0.000, 11:04:33.451
120, 24.87, -2.68, 0.00, 0.00, 0.000, 0.000, 0.000, 11:04:33.451
121, 24.83, -5.87, 0.00, 0.00, 0.000, 0.000, 0.000, 11:04:33.469
122, 24.88, -4.61, 0.00, 0.00, 0.000, 0.000, 0.000, 11:04:33.470
123, 27.46, -2.35, 0.00, 0.00, 0.000, 0.000, 0.000, 11:04:33.480
124, 29.46, -5.18, 0.00, 0.00, 0.000, 0.000, 0.000, 11:04:33.481
125, 24.27, -5.01, 0.00, 0.00, 0.000, 0.000, 0.000, 11:04:33.481
126, 26.50, -1.50, 0.00, 0.00, 0.000, 0.000, 0.000, 11:04:33.481
127, 27.10, -3.07, 0.00, 0.00, 0.000, 0.000, 0.000, 11:04:33.495
128, 27.89, -4.89, 0.00, 0.00, 0.000, 0.000, 0.000, 11:04:33.495
129, 26.62, -6.58, 0.00, 0.00, 0.000, 0.000, 0.000, 11:04:33.510
130, 30.27, -2.37, 0.00, 0.00, 0.000, 0.000, 0.000, 11:04:33.510
131, 34.35, -3.19, 0.00, 0.00, 0.000, 0.000, 0.000, 11:04:33.511
132, 28.54, -3.50, 0.00, 0.00, 0.000, 0.000, 0.000, 11:04:33.511
133, 29.94, -3.23, 0.00, 0.00, 0.000, 0.000, 0.000, 11:04:33.525
134, 28.92, -3.85, 0.00, 0.00, 0.000, 0.000, 0.000, 11:04:33.525
135, 29.55, -3.37, 0.00, 0.00, 0.000, 0.000, 0.000, 11:04:33.540
136, 32.66, -3.87, 0.00, 0.00, 0.000, 0.000, 0.000, 11:04:33.540
137, 31.51, 0.13, 0.00, 0.00, 0.000, 0.000, 0.000, 11:04:33.540
138, 30.60, -3.60, 0.00, 0.00, 0.000, 0.000, 0.000, 11:04:33.540
139, 29.36, -5.08, 0.00, 0.00, 0.000, 0.000, 0.000, 11:04:33.555
140, 30.90, -0.77, 0.00, 0.00, 0.000, 0.000, 0.000, 11:04:33.555
141, 31.20, -3.32, 0.00, 0.00, 0.000, 0.000, 0.000, 11:04:33.571
142, 29.28, -3.14, 0.00, 0.00, 0.000, 0.000, 0.000, 11:04:33.571
143, 30.12, 4.15, 0.00, 0.00, 0.000, 0.000, 0.000, 11:04:33.571
144, 29.92, -1.53, 0.00, 0.00, 0.000, 0.000, 0.000, 11:04:33.571
145, 31.00, 1.42, 0.00, 0.00, 0.000, 0.000, 0.000, 11:04:33.585
146, 27.49, 1.92, 0.00, 0.00, 0.000, 0.000, 0.000, 11:04:33.585
147, 30.33, -0.11, 0.00, 0.00, 0.000, 0.000, 0.000, 11:04:33.600
148, 30.26, -0.56, 0.00, 0.00, 0.000, 0.000, 0.000, 11:04:33.600
149, 30.38, -2.22, 0.00, 0.00, 0.000, 0.000, 0.000, 11:04:33.601
150, 28.13, -0.75, 0.00, 0.00, 0.000, 0.000, 0.000, 11:04:33.601
151, 31.66, -1.02, 0.00, 0.00, 0.000, 0.000, 0.000, 11:04:33.615
152, 28.09, 2.38, 0.00, 0.00, 0.000, 0.000, 0.000, 11:04:33.615
153, 25.64, -3.19, 0.00, 0.00, 0.000, 0.000, 0.000, 11:04:33.629
154, 30.04, 6.52, 0.00, 0.00, 0.000, 0.000, 0.000, 11:04:33.630
155, 29.00, 2.10, 0.00, 0.00, 0.000, 0.000, 0.000, 11:04:33.631
156, 23.84, -1.15, 0.00, 0.00, 0.000, 0.000, 0.000, 11:04:33.631
157, 26.20, -2.87, 0.00, 0.00, 0.000, 0.000, 0.000, 11:04:33.646
158, 28.98, 4.44, 0.00, 0.00, 0.000, 0.000, 0.000, 11:04:33.646
159, 28.12, 1.81, 0.00, 0.00, 0.000, 0.000, 0.000, 11:04:33.661
160, 27.97, -2.79, 0.00, 0.00, 0.000, 0.000, 0.000, 11:04:33.661
161, 26.20, -3.22, 0.00, 0.00, 0.000, 0.000, 0.000, 11:04:33.662
162, 27.06, -3.34, 0.00, 0.00, 0.000, 0.000, 0.000, 11:04:33.662
163, 29.35, -1.68, 0.00, 0.00, 0.000, 0.000, 0.000, 11:04:33.676
164, 27.21, 4.48, 0.00, 0.00, 0.000, 0.000, 0.000, 11:04:33.676
165, 24.45, -0.90, 0.00, 0.00, 0.000, 0.000, 0.000, 11:04:33.690
166, 24.96, 5.54, 0.00, 0.00, 0.000, 0.000, 0.000, 11:04:33.691
167, 27.07, 4.33, 0.00, 0.00, 0.000, 0.000, 0.000, 11:04:33.691
168, 27.43, -0.65, 0.00, 0.00, 0.000, 0.000, 0.000, 11:04:33.691
169, 23.22, -0.15, 0.00, 0.00, 0.000, 0.000, 0.000, 11:04:33.713
170, 24.78, 3.49, 0.00, 0.00, 0.000, 0.000, 0.000, 11:04:33.713
171, 25.24, -0.42, 0.00, 0.00, 0.000, 0.000, 0.000, 11:04:33.720
172, 24.27, 1.03, 0.00, 0.00, 0.000, 0.000, 0.000, 11:04:33.721
173, 22.84, -1.46, 0.00, 0.00, 0.000, 0.000, 0.000, 11:04:33.721
174, 23.74, -3.01, 0.00, 0.00, 0.000, 0.000, 0.000, 11:04:33.721
175, 25.30, 2.50, 0.00, 0.00, 0.000, 0.000, 0.000, 11:04:33.736
176, 22.55, 0.06, 0.00, 0.00, 0.000, 0.000, 0.000, 11:04:33.736
177, 23.59, 0.00, 0.00, 0.00, 0.000, 0.000, 0.000, 11:04:33.751
178, 22.04, -2.56, 0.00, 0.00, 0.000, 0.000, 0.000, 11:04:33.751
179, 23.82, -3.55, 0.00, 0.00, 0.000, 0.000, 0.000, 11:04:33.751
180, 20.40, -1.40, 0.00, 0.00, 0.000, 0.000, 0.000, 11:04:33.751
181, 21.11, -3.80, 0.00, 0.00, 0.000, 0.000, 0.000, 11:04:33.766
182, 22.74, 3.53, 0.00, 0.00, 0.000, 0.000, 0.000, 11:04:33.766
183, 21.58, 1.32, 0.00, 0.00, 0.000, 0.000, 0.000, 11:04:33.781
184, 24.48, -1.61, 0.00, 0.00, 0.000, 0.000, 0.000, 11:04:33.781
185, 20.39, -1.64, 0.00, 0.00, 0.000, 0.000, 0.000, 11:04:33.781
186, 19.89, -2.47, 0.00, 0.00, 0.000, 0.000, 0.000, 11:04:33.782
187, 21.95, -1.81, 0.00, 0.00, 0.000, 0.000, 0.000, 11:04:33.796
188, 25.17, -0.17, 0.00, 0.00, 0.000, 0.000, 0.000, 11:04:33.796
189, 23.49, -4.87, 0.00, 0.00, 0.000, 0.000, 0.000, 11:04:33.810
190, 24.37, -4.45, 0.00, 0.00, 0.000, 0.000, 0.000, 11:04:33.810
191, 24.58, 2.91, 0.00, 0.00, 0.000, 0.000, 0.000, 11:04:33.811
192, 23.20, -1.30, 0.00, 0.00, 0.000, 0.000, 0.000, 11:04:33.811
193, 23.31, -5.82, 0.00, 0.00, 0.000, 0.000, 0.000, 11:04:33.826
194, 21.07, 3.59, 0.00, 0.00, 0.000, 0.000, 0.000, 11:04:33.826
195, 26.13, -1.00, 0.00, 0.00, 0.000, 0.000, 0.000, 11:04:33.840
196, 27.13, -0.91, 0.00, 0.00, 0.000, 0.000, 0.000, 11:04:33.840
197, 22.65, -1.36, 0.00, 0.00, 0.000, 0.000, 0.000, 11:04:33.841
198, 25.31, -3.41, 0.00, 0.00, 0.000, 0.000, 0.000, 11:04:33.841
199, 25.95, -1.91, 0.00, 0.00, 0.000, 0.000, 0.000, 11:04:33.855
200, 26.44, 1.16, 0.00, 0.00, 0.000, 0.000, 0.000, 11:04:33.855
0, 27.49, -5.25, 0.00, 0.00, 0.000, 0.000, 0.000, 11:04:33.855
1, 23.80, -1.96, 0.00, 0.00, 0.000, 0.000, 0.000, 11:04:33.870
2, 24.79, 1.30, 0.00, 0.00, 0.000, 0.000, 0.000, 11:04:33.870
3, 28.14, -1.66, 0.00, 0.00, 0.000, 0.000, 0.000, 11:04:33.884
4, 25.66, -6.49, 0.00, 0.00, 0.000, 0.000, 0.000, 11:04:33.885
5, 24.07, 1.01, 0.00, 0.00, 0.000, 0.000, 0.000, 11:04:33.886
6, 28.08, -3.38, 0.00, 0.00, 0.000, 0.000, 0.000, 11:04:33.886
7, 29.46, -5.13, 0.00, 0.00, 0.000, 0.000, 0.000, 11:04:33.901
8, 29.71, -0.86, 0.00, 0.00, 0.000, 0.000, 0.000, 11:04:33.901
9, 24.54, -1.85, 0.00, 0.00, 0.000, 0.000, 0.000, 11:04:33.916
10, 25.94, -4.28, 0.00, 0.00, 0.000, 0.000, 0.000, 11:04:33.917
11, 28.32, 2.43, 0.00, 0.00, 0.000, 0.000, 0.000, 11:04:33.917
12, 28.61, -4.43, 0.00, 0.00, 0.000, 0.000, 0.000, 11:04:33.917
13, 27.85, -2.50, 0.00, 0.00, 0.000, 0.000, 0.000, 11:04:33.932
14, 28.66, 4.20, 0.00, 0.00, 0.000, 0.000, 0.000, 11:04:33.932
15, 28.34, -1.92, 0.00, 0.00, 0.000, 0.000, 0.000, 11:04:33.945
16, 27.74, -6.68, 0.00, 0.00, 0.000, 0.000, 0.000, 11:04:33.946
17, 27.84, 1.61, 0.00, 0.00, 0.000, 0.000, 0.000, 11:04:33.946
18, 28.08, 3.81, 0.00, 0.00, 0.000, 0.000, 0.000, 11:04:33.946
19, 26.54, -2.93, 0.00, 0.00, 0.000, 0.000, 0.000, 11:04:33.960
20, 26.51, -3.41, 0.00, 0.00, 0.000, 0.000, 0.000, 11:04:33.960
21, 25.14, -4.78, 0.00, 0.00, 0.000, 0.000, 0.000, 11:04:33.975
22, 28.18, -0.61, 0.00, 0.00, 0.000, 0.000, 0.000, 11:04:33.975
23, 28.32, -5.25, 0.00, 0.00, 0.000, 0.000, 0.000, 11:04:33.975
24, 25.03, -1.56, 0.00, 0.00, 0.000, 0.000, 0.000, 11:04:33.976
25, 25.10, -0.22, 0.00, 0.00, 0.000, 0.000, 0.000, 11:04:33.990
26, 26.42, 0.13, 0.00, 0.00, 0.000, 0.000, 0.000, 11:04:33.990
27, 24.51, -1.23, 0.00, 0.00, 0.000, 0.000, 0.000, 11:04:34.005
28, 24.36, -3.10, 0.00, 0.00, 0.000, 0.000, 0.000, 11:04:34.005
29, 26.32, -1.08, 0.00, 0.00, 0.000, 0.000, 0.000, 11:04:34.005
30, 26.51, -4.03, 0.00, 0.00, 0.000, 0.000, 0.000, 11:04:34.005
31, 27.07, -0.18, 0.00, 0.00, 0.000, 0.000, 0.000, 11:04:34.020
32, 26.16, -1.37, 0.00, 0.00, 0.000, 0.000, 0.000, 11:04:34.020
33, 24.82, -3.07, 0.00, 0.00, 0.000, 0.000, 0.000, 11:04:34.036
34, 25.88, -1.84, 0.00, 0.00, 0.000, 0.000, 0.000, 11:04:34.036
35, 25.84, -5.26, 0.00, 0.00, 0.000, 0.000, 0.000, 11:04:34.036
36, 25.56, -5.28, 0.00, 0.00, 0.000, 0.000, 0.000, 11:04:34.036
37, 27.89, -3.72, 0.00, 0.00, 0.000, 0.000, 0.000, 11:04:34.049
38, 30.60, 1.51, 0.00, 0.00, 0.000, 0.000, 0.000, 11:04:34.050
39, 29.04, -1.16, 0.00, 0.00, 0.000, 0.000, 0.000, 11:04:34.066
40, 28.15, -3.67, 0.00, 0.00, 0.000, 0.000, 0.000, 11:04:34.066
41, 27.27, -1.43, 0.00, 0.00, 0.000, 0.000, 0.000, 11:04:34.073
42, 28.62, -1.49, 0.00, 0.00, 0.000, 0.000, 0.000, 11:04:34.073
43, 25.15, -1.72, 0.00, 0.00, 0.000, 0.000, 0.000, 11:04:34.081
44, 27.02, -1.16, 0.00, 0.00, 0.000, 0.000, 0.000, 11:04:34.081
45, 25.08, 0.64, 0.00, 0.00, 0.000, 0.000, 0.000, 11:04:34.096
46, 27.44, -2.58, 0.00, 0.00, 0.000, 0.000, 0.000, 11:04:34.096
47, 24.20, -3.55, 0.00, 0.00, 0.000, 0.000, 0.000, 11:04:34.096
48, 24.27, -0.45, 0.00, 0.00, 0.000, 0.000, 0.000, 11:04:34.096
49, 24.11, -2.13, 0.00, 0.00, 0.000, 0.000, 0.000, 11:04:34.111
50, 25.31, 3.42, 0.00, 0.00, 0.000, 0.000, 0.000, 11:04:34.111
51, 26.28, -0.77, 0.00, 0.00, 0.000, 0.000, 0.000, 11:04:34.126
52, 25.31, -1.89, 0.00, 0.00, 0.000, 0.000, 0.000, 11:04:34.126
53, 28.43, 5.36, 0.00, 0.00, 0.000, 0.000, 0.000, 11:04:34.126
54, 25.94, 5.23, 0.00, 0.00, 0.000, 0.000, 0.000, 11:04:34.127
55, 26.97, -4.63, 0.00, 0.00, 0.000, 0.000, 0.000, 11:04:34.141
56, 21.10, -1.59, 0.00, 0.00, 0.000, 0.000, 0.000, 11:04:34.141
57, 22.56, -0.16, 0.00, 0.00, 0.000, 0.000, 0.000, 11:04:34.155
58, 25.67, -3.20, 0.00, 0.00, 0.000, 0.000, 0.000, 11:04:34.155
59, 26.03, 2.43, 0.00, 0.00, 0.000, 0.000, 0.000, 11:04:34.156
60, 21.66, -4.44, 0.00, 0.00, 0.000, 0.000, 0.000, 11:04:34.156
61, 22.22, -2.40, 0.00, 0.00, 0.000, 0.000, 0.000, 11:04:34.172
62, 23.98, -0.22, 0.00, 0.00, 0.000, 0.000, 0.000, 11:04:34.172
63, 23.83, 0.21, 0.00, 0.00, 0.000, 0.000, 0.000, 11:04:34.185
64, 20.19, -3.36, 0.00, 0.00, 0.000, 0.000, 0.000, 11:04:34.186
65, 21.52, -0.95, 0.00, 0.00, 0.000, 0.000, 0.000, 11:04:34.186
66, 23.23, -4.91, 0.00, 0.00, 0.000, 0.000, 0.000, 11:04:34.186
67, 23.05, -3.90, 0.00, 0.00, 0.000, 0.000, 0.000, 11:04:34.203
68, 22.71, -3.17, 0.00, 0.00, 0.000, 0.000, 0.000, 11:04:34.203
69, 23.66, -1.65, 0.00, 0.00, 0.000, 0.000, 0.000, 11:04:34.215
70, 24.34, -2.78, 0.00, 0.00, 0.000, 0.000, 0.000, 11:04:34.215
71, 24.04, -1.16, 0.00, 0.00, 0.000, 0.000, 0.000, 11:04:34.216
72, 26.49, -4.16, 0.00, 0.00, 0.000, 0.000, 0.000, 11:04:34.216
73, 25.95, -4.68, 0.00, 0.00, 0.000, 0.000, 0.000, 11:04:34.232
74, 26.44, -0.59, 0.00, 0.00, 0.000, 0.000, 0.000, 11:04:34.232
75, 26.53, -3.55, 0.00, 0.00, 0.000, 0.000, 0.000, 11:04:34.245
76, 27.10, -4.86, 0.00, 0.00, 0.000, 0.000, 0.000, 11:04:34.246
77, 27.87, -4.14, 0.00, 0.00, 0.000, 0.000, 0.000, 11:04:34.246
78, 30.35, -4.32, 0.00, 0.00, 0.000, 0.000, 0.000, 11:04:34.246
79, 32.83, -4.10, 0.00, 0.00, 0.000, 0.000, 0.000, 11:04:34.260
80, 27.79, -4.55, 0.00, 0.00, 0.000, 0.000, 0.000, 11:04:34.260
81, 26.73, -1.97, 0.00, 0.00, 0.000, 0.000, 0.000, 11:04:34.275
82, 26.36, -1.17, 0.00, 0.00, 0.000, 0.000, 0.000, 11:04:34.275
83, 25.72, -3.24, 0.00, 0.00, 0.000, 0.000, 0.000, 11:04:34.276
84, 26.96, -4.80, 0.00, 0.00, 0.000, 0.000, 0.000, 11:04:34.276
85, 27.40, -5.96, 0.00, 0.00, 0.000, 0.000, 0.000, 11:04:34.290
86, 24.80, 1.95, 0.00, 0.00, 0.000, 0.000, 0.000, 11:04:34.290
87, 24.86, -0.99, 0.00, 0.00, 0.000, 0.000, 0.000, 11:04:34.306
88, 26.68, -2.17, 0.00, 0.00, 0.000, 0.000, 0.000, 11:04:34.306
89, 24.85, 2.08, 0.00, 0.00, 0.000, 0.000, 0.000, 11:04:34.306
90, 26.05, 2.19, 0.00, 0.00, 0.000, 0.000, 0.000, 11:04:34.306
91, 23.75, -2.62, 0.00, 0.00, 0.000, 0.000, 0.000, 11:04:34.320
92, 23.89, -1.83, 0.00, 0.00, 0.000, 0.000, 0.000, 11:04:34.320
93, 26.69, -2.80, 0.00, 0.00, 0.000, 0.000, 0.000, 11:04:34.336
94, 25.53, -1.99, 0.00, 0.00, 0.000, 0.000, 0.000, 11:04:34.336
95, 25.04, 2.74, 0.00, 0.00, 0.000, 0.000, 0.000, 11:04:34.336
96, 25.62, -2.35, 0.00, 0.00, 0.000, 0.000, 0.000, 11:04:34.336
97, 25.28, -2.88, 0.00, 0.00, 0.000, 0.000, 0.000, 11:04:34.350
98, 24.02, 0.30, 0.00, 0.00, 0.000, 0.000, 0.000, 11:04:34.351
99, 27.54, -6.45, 0.00, 0.00, 0.000, 0.000, 0.000, 11:04:34.365
100, 25.34, -4.25, 0.00, 0.00, 0.000, 0.000, 0.000, 11:04:34.366
101, 24.85, -2.54, 0.00, 0.00, 0.000, 0.000, 0.000, 11:04:34.366
102, 27.46, 3.14, 0.00, 0.00, 0.000, 0.000, 0.000, 11:04:34.366
103, 24.68, 0.47, 0.00, 0.00, 0.000, 0.000, 0.000, 11:04:34.381
104, 24.07, -4.18, 0.00, 0.00, 0.000, 0.000, 0.000, 11:04:34.381
105, 25.13, -1.65, 0.00, 0.00, 0.000, 0.000, 0.000, 11:04:34.396
106, 24.46, -1.69, 0.00, 0.00, 0.000, 0.000, 0.000, 11:04:34.396
107, 26.88, -1.17, 0.00, 0.00, 0.000, 0.000, 0.000, 11:04:34.396
108, 23.92, -3.50, 0.00, 0.00, 0.000, 0.000, 0.000, 11:04:34.397
109, 25.26, -1.23, 0.00, 0.00, 0.000, 0.000, 0.000, 11:04:34.411
110, 23.57, 1.42, 0.00, 0.00, 0.000, 0.000, 0.000, 11:04:34.411
111, 27.68, -3.10, 0.00, 0.00, 0.000, 0.000, 0.000, 11:04:34.426
112, 23.05, -5.96, 0.00, 0.00, 0.000, 0.000, 0.000, 11:04:34.426
113, 26.93, -1.72, 0.00, 0.00, 0.000, 0.000, 0.000, 11:04:34.426
114, 29.01, -2.35, 0.00, 0.00, 0.000, 0.000, 0.000, 11:04:34.426
115, 29.63, -3.33, 0.00, 0.00, 0.000, 0.000, 0.000, 11:04:34.441
116, 27.30, -1.16, 0.00, 0.00, 0.000, 0.000, 0.000, 11:04:34.441
117, 26.51, -3.39, 0.00, 0.00, 0.000, 0.000, 0.000, 11:04:34.455
118, 28.84, 2.13, 0.00, 0.00, 0.000, 0.000, 0.000, 11:04:34.456
119, 26.52, -0.99, 0.00, 0.00, 0.000, 0.000, 0.000, 11:04:34.456
120, 24.59, -5.74, 0.00, 0.00, 0.000, 0.000, 0.000, 11:04:34.456
121, 24.99, -2.16, 0.00, 0.00, 0.000, 0.000, 0.000, 11:04:34.470
122, 25.53, 0.18, 0.00, 0.00, 0.000, 0.000, 0.000, 11:04:34.470
123, 21.81, -0.50, 0.00, 0.00, 0.000, 0.000, 0.000, 11:04:34.485
124, 21.16, -3.89, 0.00, 0.00, 0.000, 0.000, 0.000, 11:04:34.486
125, 22.19, 0.25, 0.00, 0.00, 0.000, 0.000, 0.000, 11:04:34.487
126, 22.19, -1.73, 0.00, 0.00, 0.000, 0.000, 0.000, 11:04:34.487
127, 23.55, -4.18, 0.00, 0.00, 0.000, 0.000, 0.000, 11:04:34.508
128, 18.88, -0.12, 0.00, 0.00, 0.000, 0.000, 0.000, 11:04:34.508
129, 20.76, -4.92, 0.00, 0.00, 0.000, 0.000, 0.000, 11:04:34.514
130, 25.50, 0.92, 0.00, 0.00, 0.000, 0.000, 0.000, 11:04:34.515
131, 18.94, -4.66, 0.00, 0.00, 0.000, 0.000, 0.000, 11:04:34.515
132, 20.17, -1.63, 0.00, 0.00, 0.000, 0.000, 0.000, 11:04:34.515
133, 18.31, -2.51, 0.00, 0.00, 0.000, 0.000, 0.000, 11:04:34.530
134, 24.15, -0.95, 0.00, 0.00, 0.000, 0.000, 0.000, 11:04:34.530
135, 23.44, -3.95, 0.00, 0.00, 0.000, 0.000, 0.000, 11:04:34.546
136, 22.34, -6.11, 0.00, 0.00, 0.000, 0.000, 0.000, 11:04:34.546
137, 23.27, 0.80, 0.00, 0.00, 0.000, 0.000, 0.000, 11:04:34.546
138, 22.74, -3.65, 0.00, 0.00, 0.000, 0.000, 0.000, 11:04:34.546
139, 23.79, -2.05, 0.00, 0.00, 0.000, 0.000, 0.000, 11:04:34.561
140, 24.52, 0.27, 0.00, 0.00, 0.000, 0.000, 0.000, 11:04:34.561
141, 24.48, -3.25, 0.00, 0.00, 0.000, 0.000, 0.000, 11:04:34.576
142, 24.12, -3.11, 0.00, 0.00, 0.000, 0.000, 0.000, 11:04:34.576
143, 26.06, -0.99, 0.00, 0.00, 0.000, 0.000, 0.000, 11:04:34.576
144, 26.00, -6.43, 0.00, 0.00, 0.000, 0.000, 0.000, 11:04:34.576
145, 23.84, -5.72, 0.00, 0.00, 0.000, 0.000, 0.000, 11:04:34.590
146, 25.20, 2.53, 0.00, 0.00, 0.000, 0.000, 0.000, 11:04:34.590
147, 27.37, -5.62, 0.00, 0.00, 0.000, 0.000, 0.000, 11:04:34.606
148, 27.12, -5.85, 0.00, 0.00, 0.000, 0.000, 0.000, 11:04:34.606
149, 27.49, -4.42, 0.00, 0.00, 0.000, 0.000, 0.000, 11:04:34.606
150, 28.33, -6.88, 0.00, 0.00, 0.000, 0.000, 0.000, 11:04:34.606
151, 26.40, -4.35, 0.00, 0.00, 0.000, 0.000, 0.000, 11:04:34.620
152, 24.17, -1.07, 0.00, 0.00, 0.000, 0.000, 0.000, 11:04:34.620
153, 28.20, -3.18, 0.00, 0.00, 0.000, 0.000, 0.000, 11:04:34.636
154, 25.29, -1.52, 0.00, 0.00, 0.000, 0.000, 0.000, 11:04:34.636
155, 24.46, -0.27, 0.00, 0.00, 0.000, 0.000, 0.000, 11:04:34.636
156, 22.65, -6.37, 0.00, 0.00, 0.000, 0.000, 0.000, 11:04:34.636
157, 24.27, -4.64, 0.00, 0.00, 0.000, 0.000, 0.000, 11:04:34.650
158, 24.15, -0.21, 0.00, 0.00, 0.000, 0.000, 0.000, 11:04:34.650
159, 21.55, -3.48, 0.00, 0.00, 0.000, 0.000, 0.000, 11:04:34.666
160, 22.52, -2.60, 0.00, 0.00, 0.000, 0.000, 0.000, 11:04:34.666
161, 23.80, -1.30, 0.00, 0.00, 0.000, 0.000, 0.000, 11:04:34.666
162, 20.92, -1.14, 0.00, 0.00, 0.000, 0.000, 0.000, 11:04:34.666
163, 25.04, -3.24, 0.00, 0.00, 0.000, 0.000, 0.000, 11:04:34.680
164, 22.52, -2.13, 0.00, 0.00, 0.000, 0.000, 0.000, 11:04:34.680
165, 19.16, -0.98, 0.00, 0.00, 0.000, 0.000, 0.000, 11:04:34.695
166, 21.90, -0.81, 0.00, 0.00, 0.000, 0.000, 0.000, 11:04:34.696
167, 22.23, -1.90, 0.00, 0.00, 0.000, 0.000, 0.000, 11:04:34.696
168, 20.48, -4.30, 0.00, 0.00, 0.000, 0.000, 0.000, 11:04:34.696
169, 23.42, -0.57, 0.00, 0.00, 0.000, 0.000, 0.000, 11:04:34.711
170, 24.74, 4.95, 0.00, 0.00, 0.000, 0.000, 0.000, 11:04:34.711
171, 22.47, -3.20, 0.00, 0.00, 0.000, 0.000, 0.000, 11:04:34.725
172, 22.57, -3.22, 0.00, 0.00, 0.000, 0.000, 0.000, 11:04:34.725
173, 24.57, 2.43, 0.00, 0.00, 0.000, 0.000, 0.000, 11:04:34.726
174, 26.88, 1.05, 0.00, 0.00, 0.000, 0.000, 0.000, 11:04:34.726
175, 26.45, 0.03, 0.00, 0.00, 0.000, 0.000, 0.000, 11:04:34.740
176, 22.93, 1.62, 0.00, 0.00, 0.000, 0.000, 0.000, 11:04:34.740
177, 21.74, 0.69, 0.00, 0.00, 0.000, 0.000, 0.000, 11:04:34.755
178, 24.70, 2.13, 0.00, 0.00, 0.000, 0.000, 0.000, 11:04:34.755
179, 23.73, -1.51, 0.00, 0.00, 0.000, 0.000, 0.000, 11:04:34.758
180, 22.01, -2.62, 0.00, 0.00, 0.000, 0.000, 0.000, 11:04:34.758
181, 23.59, -0.06, 0.00, 0.00, 0.000, 0.000, 0.000, 11:04:34.771
182, 25.74, 1.99, 0.00, 0.00, 0.000, 0.000, 0.000, 11:04:34.772
183, 23.76, 1.94, 0.00, 0.00, 0.000, 0.000, 0.000, 11:04:34.786
184, 22.26, 0.82, 0.00, 0.00, 0.000, 0.000, 0.000, 11:04:34.786
185, 22.91, 4.62, 0.00, 0.00, 0.000, 0.000, 0.000, 11:04:34.786
186, 23.40, 0.44, 0.00, 0.00, 0.000, 0.000, 0.000, 11:04:34.786
187, 22.92, -2.21, 0.00, 0.00, 0.000, 0.000, 0.000, 11:04:34.805
188, 22.70, 2.03, 0.00, 0.00, 0.000, 0.000, 0.000, 11:04:34.805
189, 26.06, -1.10, 0.00, 0.00, 0.000, 0.000, 0.000, 11:04:34.816
190, 24.25, -0.19, 0.00, 0.00, 0.000, 0.000, 0.000, 11:04:34.816
191, 21.02, 5.62, 0.00, 0.00, 0.000, 0.000, 0.000, 11:04:34.816
192, 21.21, -2.10, 0.00, 0.00, 0.000, 0.000, 0.000, 11:04:34.816
193, 24.27, -1.95, 0.00, 0.00, 0.000, 0.000, 0.000, 11:04:34.831
194, 23.37, 2.22, 0.00, 0.00, 0.000, 0.000, 0.000, 11:04:34.831
195, 25.90, 3.91, 0.00, 0.00, 0.000, 0.000, 0.000, 11:04:34.845
196, 19.28, -0.46, 0.00, 0.00, 0.000, 0.000, 0.000, 11:04:34.846
197, 21.42, 0.22, 0.00, 0.00, 0.000, 0.000, 0.000, 11:04:34.846
198, 24.25, 1.69, 0.00, 0.00, 0.000, 0.000, 0.000, 11:04:34.846
199, 26.59, -2.96, 0.00, 0.00, 0.000, 0.000, 0.000, 11:04:34.875
200, 26.28, 0.95, 0.00, 0.00, 0.000, 0.000, 0.000, 11:04:34.876
0, 25.94, -0.97, 0.00, 0.00, 0.000, 0.000, 0.000, 11:04:34.876
1, 26.20, 2.82, 0.00, 0.00, 0.000, 0.000, 0.000, 11:04:34.876
2, 26.89, 0.21, 0.00, 0.00, 0.000, 0.000, 0.000, 11:04:34.876
3, 21.68, -3.28, 0.00, 0.00, 0.000, 0.000, 0.000, 11:04:34.877
4, 24.71, -1.42, 0.00, 0.00, 0.000, 0.000, 0.000, 11:04:34.877
5, 27.49, -0.07, 0.00, 0.00, 0.000, 0.000, 0.000, 11:04:34.890
6, 25.92, -3.17, 0.00, 0.00, 0.000, 0.000, 0.000, 11:04:34.891
7, 26.62, -6.62, 0.00, 0.00, 0.000, 0.000, 0.000, 11:04:34.905
8, 28.34, -0.18, 0.00, 0.00, 0.000, 0.000, 0.000, 11:04:34.905
9, 29.14, -6.17, 0.00, 0.00, 0.000, 0.000, 0.000, 11:04:34.920
10, 27.92, -5.39, 0.00, 0.00, 0.000, 0.000, 0.000, 11:04:34.920
11, 27.37, -1.09, 0.00, 0.00, 0.000, 0.000, 0.000, 11:04:34.920
12, 29.78, -2.33, 0.00, 0.00, 0.000, 0.000, 0.000, 11:04:34.921
13, 30.69, -3.03, 0.00, 0.00, 0.000, 0.000, 0.000, 11:04:34.935
14, 30.70, -2.74, 0.00, 0.00, 0.000, 0.000, 0.000, 11:04:34.936
15, 28.57, -6.41, 0.00, 0.00, 0.000, 0.000, 0.000, 11:04:34.950
16, 31.13, 2.50, 0.00, 0.00, 0.000, 0.000, 0.000, 11:04:34.950
17, 30.34, 3.53, 0.00, 0.00, 0.000, 0.000, 0.000, 11:04:34.950
18, 26.97, 1.58, 0.00, 0.00, 0.000, 0.000, 0.000, 11:04:34.951
19, 25.16, -5.25, 0.00, 0.00, 0.000, 0.000, 0.000, 11:04:34.967
20, 23.53, 1.72, 0.00, 0.00, 0.000, 0.000, 0.000, 11:04:34.968
21, 25.46, 4.96, 0.00, 0.00, 0.000, 0.000, 0.000, 11:04:34.981
22, 26.24, 0.41, 0.00, 0.00, 0.000, 0.000, 0.000, 11:04:34.981
23, 20.43, 1.38, 0.00, 0.00, 0.000, 0.000, 0.000, 11:04:34.981
24, 21.46, 0.92, 0.00, 0.00, 0.000, 0.000, 0.000, 11:04:34.981
25, 25.13, 4.48, 0.00, 0.00, 0.000, 0.000, 0.000, 11:04:34.996
26, 24.83, 5.93, 0.00, 0.00, 0.000, 0.000, 0.000, 11:04:34.996
27, 21.03, 2.27, 0.00, 0.00, 0.000, 0.000, 0.000, 11:04:35.010
28, 20.60, -1.10, 0.00, 0.00, 0.000, 0.000, 0.000, 11:04:35.010
29, 22.67, 2.02, 0.00, 0.00, 0.000, 0.000, 0.000, 11:04:35.010
30, 24.78, 0.14, 0.00, 0.00, 0.000, 0.000, 0.000, 11:04:35.010
31, 24.37, -3.57, 0.00, 0.00, 0.000, 0.000, 0.000, 11:04:35.025
32, 23.25, 0.25, 0.00, 0.00, 0.000, 0.000, 0.000, 11:04:35.025
33, 26.62, 1.88, 0.00, 0.00, 0.000, 0.000, 0.000, 11:04:35.040
34, 24.77, -3.55, 0.00, 0.00, 0.000, 0.000, 0.000, 11:04:35.040
35, 22.75, -3.43, 0.00, 0.00, 0.000, 0.000, 0.000, 11:04:35.040
36, 20.48, -0.48, 0.00, 0.00, 0.000, 0.000, 0.000, 11:04:35.041
37, 23.78, 5.33, 0.00, 0.00, 0.000, 0.000, 0.000, 11:04:35.055
38, 23.22, 1.40, 0.00, 0.00, 0.000, 0.000, 0.000, 11:04:35.055
39, 24.63, -5.20, 0.00, 0.00, 0.000, 0.000, 0.000, 11:04:35.070
40, 23.11, 0.78, 0.00, 0.00, 0.000, 0.000, 0.000, 11:04:35.070
41, 26.10, 4.89, 0.00, 0.00, 0.000, 0.000, 0.000, 11:04:35.071
42, 23.20, -5.22, 0.00, 0.00, 0.000, 0.000, 0.000, 11:04:35.071
43, 21.27, -0.72, 0.00, 0.00, 0.000, 0.000, 0.000, 11:04:35.085
44, 21.28, 4.13, 0.00, 0.00, 0.000, 0.000, 0.000, 11:04:35.085
45, 24.41, 2.25, 0.00, 0.00, 0.000, 0.000, 0.000, 11:04:35.100
46, 23.62, 1.45, 0.00, 0.00, 0.000, 0.000, 0.000, 11:04:35.101
47, 20.72, -6.47, 0.00, 0.00, 0.000, 0.000, 0.000, 11:04:35.101
48, 19.95, -2.25, 0.00, 0.00, 0.000, 0.000, 0.000, 11:04:35.101
49, 24.16, -1.39, 0.00, 0.00, 0.000, 0.000, 0.000, 11:04:35.115
50, 22.39, -2.03, 0.00, 0.00, 0.000, 0.000, 0.000, 11:04:35.116
51, 20.36, -4.22, 0.00, 0.00, 0.000, 0.000, 0.000, 11:04:35.132
52, 23.35, -1.41, 0.00, 0.00, 0.000, 0.000, 0.000, 11:04:35.132
53, 26.50, -0.10, 0.00, 0.00, 0.000, 0.000, 0.000, 11:04:35.132
54, 24.32, -4.07, 0.00, 0.00, 0.000, 0.000, 0.000, 11:04:35.133
55, 22.99, -5.90, 0.00, 0.00, 0.000, 0.000, 0.000, 11:04:35.146
56, 22.05, -3.50, 0.00, 0.00, 0.000, 0.000, 0.000, 11:04:35.146
57, 25.62, -1.88, 0.00, 0.00, 0.000, 0.000, 0.000, 11:04:35.160
58, 22.82, -1.80, 0.00, 0.00, 0.000, 0.000, 0.000, 11:04:35.160
59, 18.71, -5.07, 0.00, 0.00, 0.000, 0.000, 0.000, 11:04:35.160
60, 20.14, -2.57, 0.00, 0.00, 0.000, 0.000, 0.000, 11:04:35.160
61, 22.92, -0.69, 0.00, 0.00, 0.000, 0.000, 0.000, 11:04:35.175
62, 22.42, -1.60, 0.00, 0.00, 0.000, 0.000, 0.000, 11:04:35.175
63, 21.95, -0.82, 0.00, 0.00, 0.000, 0.000, 0.000, 11:04:35.205
64, 23.08, -2.05, 0.00, 0.00, 0.000, 0.000, 0.000, 11:04:35.206
65, 25.03, 2.14, 0.00, 0.00, 0.000, 0.000, 0.000, 11:04:35.206
66, 23.87, -8.76, 0.00, 0.00, 0.000, 0.000, 0.000, 11:04:35.206
67, 20.82, -5.41, 0.00, 0.00, 0.000, 0.000, 0.000, 11:04:35.208
68, 23.20, -2.91, 0.00, 0.00, 0.000, 0.000, 0.000, 11:04:35.208
69, 25.98, -2.59, 0.00, 0.00, 0.000, 0.000, 0.000, 11:04:35.208
70, 28.65, -4.16, 0.00, 0.00, 0.000, 0.000, 0.000, 11:04:35.208
71, 25.21, -5.06, 0.00, 0.00, 0.000, 0.000, 0.000, 11:04:35.221
72, 23.40, -3.58, 0.00, 0.00, 0.000, 0.000, 0.000, 11:04:35.221
73, 24.80, -3.23, 0.00, 0.00, 0.000, 0.000, 0.000, 11:04:35.237
74, 26.41, -4.99, 0.00, 0.00, 0.000, 0.000, 0.000, 11:04:35.238
75, 23.76, -3.77, 0.00, 0.00, 0.000, 0.000, 0.000, 11:04:35.250
76, 23.37, -1.77, 0.00, 0.00, 0.000, 0.000, 0.000, 11:04:35.250
77, 27.75, 1.54, 0.00, 0.00, 0.000, 0.000, 0.000, 11:04:35.250
78, 26.93, -2.42, 0.00, 0.00, 0.000, 0.000, 0.000, 11:04:35.251
79, 24.26, -4.90, 0.00, 0.00, 0.000, 0.000, 0.000, 11:04:35.265
80, 24.78, 0.83, 0.00, 0.00, 0.000, 0.000, 0.000, 11:04:35.265
81, 31.37, -6.11, 0.00, 0.00, 0.000, 0.000, 0.000, 11:04:35.281
82, 34.56, -6.48, 0.00, 0.00, 0.000, 0.000, 0.000, 11:04:35.281
83, 29.14, -4.05, 0.00, 0.00, 0.000, 0.000, 0.000, 11:04:35.281
84, 32.90, -5.51, 0.00, 0.00, 0.000, 0.000, 0.000, 11:04:35.281
85, 32.88, -2.81, 0.00, 0.00, 0.000, 0.000, 0.000, 11:04:35.296
86, 28.75, -4.43, 0.00, 0.00, 0.000, 0.000, 0.000, 11:04:35.296
87, 29.31, -6.25, 0.00, 0.00, 0.000, 0.000, 0.000, 11:04:35.311
88, 31.10, -5.96, 0.00, 0.00, 0.000, 0.000, 0.000, 11:04:35.311
89, 30.05, 0.37, 0.00, 0.00, 0.000, 0.000, 0.000, 11:04:35.311
90, 32.83, -6.40, 0.00, 0.00, 0.000, 0.000, 0.000, 11:04:35.311
91, 34.80, -4.89, 0.00, 0.00, 0.000, 0.000, 0.000, 11:04:35.332
92, 35.10, -2.85, 0.00, 0.00, 0.000, 0.000, 0.000, 11:04:35.332
93, 31.00, -4.51, 0.00, 0.00, 0.000, 0.000, 0.000, 11:04:35.340
94, 34.36, -1.17, 0.00, 0.00, 0.000, 0.000, 0.000, 11:04:35.340
95, 31.02, 0.30, 0.00, 0.00, 0.000, 0.000, 0.000, 11:04:35.341
96, 31.43, 1.71, 0.00, 0.00, 0.000, 0.000, 0.000, 11:04:35.341
97, 29.58, 2.81, 0.00, 0.00, 0.000, 0.000, 0.000, 11:04:35.355
98, 31.61, -0.13, 0.00, 0.00, 0.000, 0.000, 0.000, 11:04:35.355
99, 25.68, -0.74, 0.00, 0.00, 0.000, 0.000, 0.000, 11:04:35.370
100, 26.71, -0.84, 0.00, 0.00, 0.000, 0.000, 0.000, 11:04:35.370
101, 26.93, 3.11, 0.00, 0.00, 0.000, 0.000, 0.000, 11:04:35.371
102, 28.10, -0.61, 0.00, 0.00, 0.000, 0.000, 0.000, 11:04:35.371
103, 24.44, 0.34, 0.00, 0.00, 0.000, 0.000, 0.000, 11:04:35.387
104, 27.02, 5.92, 0.00, 0.00, 0.000, 0.000, 0.000, 11:04:35.388
105, 28.09, 4.56, 0.00, 0.00, 0.000, 0.000, 0.000, 11:04:35.401
106, 24.78, 1.83, 0.00, 0.00, 0.000, 0.000, 0.000, 11:04:35.401
107, 25.53, 1.86, 0.00, 0.00, 0.000, 0.000, 0.000, 11:04:35.401
108, 26.71, 3.33, 0.00, 0.00, 0.000, 0.000, 0.000, 11:04:35.402
109, 27.51, 4.30, 0.00, 0.00, 0.000, 0.000, 0.000, 11:04:35.415
110, 24.51, 2.31, 0.00, 0.00, 0.000, 0.000, 0.000, 11:04:35.416
111, 24.22, 0.97, 0.00, 0.00, 0.000, 0.000, 0.000, 11:04:35.430
112, 26.32, 4.63, 0.00, 0.00, 0.000, 0.000, 0.000, 11:04:35.431
113, 21.60, 6.27, 0.00, 0.00, 0.000, 0.000, 0.000, 11:04:35.431
114, 20.74, 5.09, 0.00, 0.00, 0.000, 0.000, 0.000, 11:04:35.432
115, 17.63, 4.05, 0.00, 0.00, 0.000, 0.000, 0.000, 11:04:35.445
116, 20.97, -0.50, 0.00, 0.00, 0.000, 0.000, 0.000, 11:04:35.446
117, 20.16, 0.49, 0.00, 0.00, 0.000, 0.000, 0.000, 11:04:35.461
118, 21.34, -0.73, 0.00, 0.00, 0.000, 0.000, 0.000, 11:04:35.461
119, 20.67, -0.54, 0.00, 0.00, 0.000, 0.000, 0.000, 11:04:35.461
120, 23.55, 1.60, 0.00, 0.00, 0.000, 0.000, 0.000, 11:04:35.462
121, 26.09, -0.74, 0.00, 0.00, 0.000, 0.000, 0.000, 11:04:35.475
122, 22.86, 2.78, 0.00, 0.00, 0.000, 0.000, 0.000, 11:04:35.475
123, 22.66, -1.37, 0.00, 0.00, 0.000, 0.000, 0.000, 11:04:35.490
124, 19.82, -2.59, 0.00, 0.00, 0.000, 0.000, 0.000, 11:04:35.490
125, 20.99, 2.98, 0.00, 0.00, 0.000, 0.000, 0.000, 11:04:35.490
126, 23.02, 0.11, 0.00, 0.00, 0.000, 0.000, 0.000, 11:04:35.491
127, 22.70, -2.85, 0.00, 0.00, 0.000, 0.000, 0.000, 11:04:35.505
128, 24.14, 1.22, 0.00, 0.00, 0.000, 0.000, 0.000, 11:04:35.506
129, 25.02, 1.39, 0.00, 0.00, 0.000, 0.000, 0.000, 11:04:35.520
130, 23.49, -3.13, 0.00, 0.00, 0.000, 0.000, 0.000, 11:04:35.520
131, 20.29, -0.81, 0.00, 0.00, 0.000, 0.000, 0.000, 11:04:35.521
132, 25.55, -2.13, 0.00, 0.00, 0.000, 0.000, 0.000, 11:04:35.521
133, 22.70, 2.08, 0.00, 0.00, 0.000, 0.000, 0.000, 11:04:35.535
134, 23.35, 4.98, 0.00, 0.00, 0.000, 0.000, 0.000, 11:04:35.535
135, 21.62, -3.22, 0.00, 0.00, 0.000, 0.000, 0.000, 11:04:35.550
136, 23.89, -5.64, 0.00, 0.00, 0.000, 0.000, 0.000, 11:04:35.550
137, 26.78, -1.59, 0.00, 0.00, 0.000, 0.000, 0.000, 11:04:35.555
138, 23.37, 2.84, 0.00, 0.00, 0.000, 0.000, 0.000, 11:04:35.555
139, 24.57, -6.49, 0.00, 0.00, 0.000, 0.000, 0.000, 11:04:35.565
140, 21.57, -0.77, 0.00, 0.00, 0.000, 0.000, 0.000, 11:04:35.566
141, 26.23, 0.68, 0.00, 0.00, 0.000, 0.000, 0.000, 11:04:35.583
142, 22.17, -2.00, 0.00, 0.00, 0.000, 0.000, 0.000, 11:04:35.584
143, 21.49, -2.86, 0.00, 0.00, 0.000, 0.000, 0.000, 11:04:35.584
144, 26.61, -1.89, 0.00, 0.00, 0.000, 0.000, 0.000, 11:04:35.584
145, 27.18, -1.04, 0.00, 0.00, 0.000, 0.000, 0.000, 11:04:35.595
146, 25.76, 0.01, 0.00, 0.00, 0.000, 0.000, 0.000, 11:04:35.596
147, 27.72, -5.21, 0.00, 0.00, 0.000, 0.000, 0.000, 11:04:35.610
148, 27.05, 0.65, 0.00, 0.00, 0.000, 0.000, 0.000, 11:04:35.611
149, 27.79, 0.53, 0.00, 0.00, 0.000, 0.000, 0.000, 11:04:35.611
150, 28.72, -3.30, 0.00, 0.00, 0.000, 0.000, 0.000, 11:04:35.611
151, 27.17, -4.15, 0.00, 0.00, 0.000, 0.000, 0.000, 11:04:35.625
152, 29.50, 0.36, 0.00, 0.00, 0.000, 0.000, 0.000, 11:04:35.626
153, 25.88, -3.83, 0.00, 0.00, 0.000, 0.000, 0.000, 11:04:35.640
154, 28.80, -3.78, 0.00, 0.00, 0.000, 0.000, 0.000, 11:04:35.640
155, 27.16, -2.91, 0.00, 0.00, 0.000, 0.000, 0.000, 11:04:35.641
156, 28.20, -4.15, 0.00, 0.00, 0.000, 0.000, 0.000, 11:04:35.641
157, 28.90, -3.06, 0.00, 0.00, 0.000, 0.000, 0.000, 11:04:35.655
158, 22.22, -1.96, 0.00, 0.00, 0.000, 0.000, 0.000, 11:04:35.655
159, 24.71, -4.21, 0.00, 0.00, 0.000, 0.000, 0.000, 11:04:35.672
160, 26.76, -4.90, 0.00, 0.00, 0.000, 0.000, 0.000, 11:04:35.672
161, 24.08, -3.43, 0.00, 0.00, 0.000, 0.000, 0.000, 11:04:35.672
162, 25.55, -3.69, 0.00, 0.00, 0.000, 0.000, 0.000, 11:04:35.672
163, 24.75, -7.06, 0.00, 0.00, 0.000, 0.000, 0.000, 11:04:35.685
164, 23.41, -0.30, 0.00, 0.00, 0.000, 0.000, 0.000, 11:04:35.685
165, 24.25, -2.60, 0.00, 0.00, 0.000, 0.000, 0.000, 11:04:35.700
166, 23.55, -4.16, 0.00, 0.00, 0.000, 0.000, 0.000, 11:04:35.701
167, 20.84, -1.16, 0.00, 0.00, 0.000, 0.000, 0.000, 11:04:35.701
168, 26.04, -4.51, 0.00, 0.00, 0.000, 0.000, 0.000, 11:04:35.701
169, 24.10, 0.84, 0.00, 0.00, 0.000, 0.000, 0.000, 11:04:35.715
170, 22.53, -5.33, 0.00, 0.00, 0.000, 0.000, 0.000, 11:04:35.716
171, 24.00, -5.92, 0.00, 0.00, 0.000, 0.000, 0.000, 11:04:35.731
172, 25.10, -0.02, 0.00, 0.00, 0.000, 0.000, 0.000, 11:04:35.731
173, 24.98, 1.02, 0.00, 0.00, 0.000, 0.000, 0.000, 11:04:35.731
174, 22.68, -4.03, 0.00, 0.00, 0.000, 0.000, 0.000, 11:04:35.731
175, 25.64, -3.74, 0.00, 0.00, 0.000, 0.000, 0.000, 11:04:35.746
176, 25.30, -3.01, 0.00, 0.00, 0.000, 0.000, 0.000, 11:04:35.746
177, 24.86, -4.60, 0.00, 0.00, 0.000, 0.000, 0.000, 11:04:35.761
178, 25.05, -5.47, 0.00, 0.00, 0.000, 0.000, 0.000, 11:04:35.761
179, 26.88, -4.14, 0.00, 0.00, 0.000, 0.000, 0.000, 11:04:35.761
180, 25.30, -4.91, 0.00, 0.00, 0.000, 0.000, 0.000, 11:04:35.761
181, 26.17, -4.26, 0.00, 0.00, 0.000, 0.000, 0.000, 11:04:35.775
182, 28.56, -1.94, 0.00, 0.00, 0.000, 0.000, 0.000, 11:04:35.776
183, 26.57, -5.76, 0.00, 0.00, 0.000, 0.000, 0.000, 11:04:35.790
184, 24.10, -4.18, 0.00, 0.00, 0.000, 0.000, 0.000, 11:04:35.790
185, 28.43, -1.26, 0.00, 0.00, 0.000, 0.000, 0.000, 11:04:35.798
186, 26.72, -7.18, 0.00, 0.00, 0.000, 0.000, 0.000, 11:04:35.798
187, 29.02, -3.83, 0.00, 0.00, 0.000, 0.000, 0.000, 11:04:35.821
188, 28.09, -1.89, 0.00, 0.00, 0.000, 0.000, 0.000, 11:04:35.821
189, 31.10, -5.20, 0.00, 0.00, 0.000, 0.000, 0.000, 11:04:35.821
190, 27.19, -2.55, 0.00, 0.00, 0.000, 0.000, 0.000, 11:04:35.822
191, 28.06, 1.08, 0.00, 0.00, 0.000, 0.000, 0.000, 11:04:35.822
192, 30.62, -1.14, 0.00, 0.00, 0.000, 0.000, 0.000, 11:04:35.822
193, 30.55, -0.75, 0.00, 0.00, 0.000, 0.000, 0.000, 11:04:35.836
194, 30.23, -0.63, 0.00, 0.00, 0.000, 0.000, 0.000, 11:04:35.836
195, 29.25, -2.72, 0.00, 0.00, 0.000, 0.000, 0.000, 11:04:35.853
196, 27.40, -1.57, 0.00, 0.00, 0.000, 0.000, 0.000, 11:04:35.853
197, 29.46, 0.54, 0.00, 0.00, 0.000, 0.000, 0.000, 11:04:35.853
198, 32.17, -6.26, 0.00, 0.00, 0.000, 0.000, 0.000, 11:04:35.854
199, 32.05, -3.68, 0.00, 0.00, 0.000, 0.000, 0.000, 11:04:35.866
200, 30.57, -0.73, 0.00, 0.00, 0.000, 0.000, 0.000, 11:04:35.866
0, 29.51, -5.67, 0.00, 0.00, 0.000, 0.000, 0.000, 11:04:35.866
1, 30.30, -3.38, 0.00, 0.00, 0.000, 0.000, 0.000, 11:04:35.881
2, 28.67, -3.95, 0.00, 0.00, 0.000, 0.000, 0.000, 11:04:35.881
3, 28.31, -1.22, 0.00, 0.00, 0.000, 0.000, 0.000, 11:04:35.896
4, 27.74, -0.24, 0.00, 0.00, 0.000, 0.000, 0.000, 11:04:35.896
5, 27.97, 4.04, 0.00, 0.00, 0.000, 0.000, 0.000, 11:04:35.896
6, 23.65, -0.46, 0.00, 0.00, 0.000, 0.000, 0.000, 11:04:35.897
7, 27.46, -0.66, 0.00, 0.00, 0.000, 0.000, 0.000, 11:04:35.915
8, 26.15, 3.10, 0.00, 0.00, 0.000, 0.000, 0.000, 11:04:35.916
9, 28.86, -1.22, 0.00, 0.00, 0.000, 0.000, 0.000, 11:04:35.926
10, 27.82, -2.69, 0.00, 0.00, 0.000, 0.000, 0.000, 11:04:35.928
11, 24.56, 2.54, 0.00, 0.00, 0.000, 0.000, 0.000, 11:04:35.928
12, 28.77, 4.16, 0.00, 0.00, 0.000, 0.000, 0.000, 11:04:35.928
13, 25.57, 3.67, 0.00, 0.00, 0.000, 0.000, 0.000, 11:04:35.956
14, 25.17, -0.28, 0.00, 0.00, 0.000, 0.000, 0.000, 11:04:35.956
15, 26.57, -1.19, 0.00, 0.00, 0.000, 0.000, 0.000, 11:04:35.956
16, 26.76, -0.03, 0.00, 0.00, 0.000, 0.000, 0.000, 11:04:35.956
17, 26.07, -0.76, 0.00, 0.00, 0.000, 0.000, 0.000, 11:04:35.957
18, 26.71, -2.60, 0.00, 0.00, 0.000, 0.000, 0.000, 11:04:35.957
19, 25.85, 1.22, 0.00, 0.00, 0.000, 0.000, 0.000, 11:04:35.985
20, 23.45, 3.98, 0.00, 0.00, 0.000, 0.000, 0.000, 11:04:35.985
21, 25.35, -1.41, 0.00, 0.00, 0.000, 0.000, 0.000, 11:04:35.985
22, 23.75, -2.87, 0.00, 0.00, 0.000, 0.000, 0.000, 11:04:35.986
23, 22.09, -1.32, 0.00, 0.00, 0.000, 0.000, 0.000, 11:04:35.986
24, 26.02, -1.51, 0.00, 0.00, 0.000, 0.000, 0.000, 11:04:35.986
25, 24.35, -3.75, 0.00, 0.00, 0.000, 0.000, 0.000, 11:04:36.001
26, 23.47, -3.34, 0.00, 0.00, 0.000, 0.000, 0.000, 11:04:36.001
27, 27.09, -1.82, 0.00, 0.00, 0.000, 0.000, 0.000, 11:04:36.017
28, 28.71, -4.73, 0.00, 0.00, 0.000, 0.000, 0.000, 11:04:36.017
29, 28.70, -0.87, 0.00, 0.00, 0.000, 0.000, 0.000, 11:04:36.017
30, 26.05, -5.54, 0.00, 0.00, 0.000, 0.000, 0.000, 11:04:36.018
31, 29.17, -2.43, 0.00, 0.00, 0.000, 0.000, 0.000, 11:04:36.031
32, 31.74, -0.43, 0.00, 0.00, 0.000, 0.000, 0.000, 11:04:36.031
33, 30.31, -6.92, 0.00, 0.00, 0.000, 0.000, 0.000, 11:04:36.046
34, 31.92, -7.38, 0.00, 0.00, 0.000, 0.000, 0.000, 11:04:36.046
35, 29.95, -2.64, 0.00, 0.00, 0.000, 0.000, 0.000, 11:04:36.046
36, 32.07, 0.48, 0.00, 0.00, 0.000, 0.000, 0.000, 11:04:36.047
37, 29.10, -2.73, 0.00, 0.00, 0.000, 0.000, 0.000, 11:04:36.067
38, 29.80, 2.90, 0.00, 0.00, 0.000, 0.000, 0.000, 11:04:36.068
39, 30.17, 0.56, 0.00, 0.00, 0.000, 0.000, 0.000, 11:04:36.076
40, 31.57, -1.98, 0.00, 0.00, 0.000, 0.000, 0.000, 11:04:36.076
41, 29.54, 1.27, 0.00, 0.00, 0.000, 0.000, 0.000, 11:04:36.076
42, 23.91, 0.58, 0.00, 0.00, 0.000, 0.000, 0.000, 11:04:36.077
43, 27.74, 1.33, 0.00, 0.00, 0.000, 0.000, 0.000, 11:04:36.090
44, 29.67, 3.84, 0.00, 0.00, 0.000, 0.000, 0.000, 11:04:36.091
45, 25.82, -3.25, 0.00, 0.00, 0.000, 0.000, 0.000, 11:04:36.106
46, 26.37, 2.75, 0.00, 0.00, 0.000, 0.000, 0.000, 11:04:36.106
47, 27.33, 0.70, 0.00, 0.00, 0.000, 0.000, 0.000, 11:04:36.106
48, 29.02, -4.22, 0.00, 0.00, 0.000, 0.000, 0.000, 11:04:36.107
49, 26.41, -2.95, 0.00, 0.00, 0.000, 0.000, 0.000, 11:04:36.120
50, 23.65, -1.46, 0.00, 0.00, 0.000, 0.000, 0.000, 11:04:36.121
51, 25.25, -4.07, 0.00, 0.00, 0.000, 0.000, 0.000, 11:04:36.136
52, 26.85, 0.17, 0.00, 0.00, 0.000, 0.000, 0.000, 11:04:36.136
53, 25.31, -1.37, 0.00, 0.00, 0.000, 0.000, 0.000, 11:04:36.137
54, 26.45, -0.75, 0.00, 0.00, 0.000, 0.000, 0.000, 11:04:36.137
55, 26.10, 1.69, 0.00, 0.00, 0.000, 0.000, 0.000, 11:04:36.150
56, 24.66, 4.33, 0.00, 0.00, 0.000, 0.000, 0.000, 11:04:36.150
57, 24.59, -0.92, 0.00, 0.00, 0.000, 0.000, 0.000, 11:04:36.167
58, 22.09, -1.41, 0.00, 0.00, 0.000, 0.000, 0.000, 11:04:36.168
59, 25.21, 1.10, 0.00, 0.00, 0.000, 0.000, 0.000, 11:04:36.169
60, 20.89, -1.54, 0.00, 0.00, 0.000, 0.000, 0.000, 11:04:36.169
61, 25.54, -0.69, 0.00, 0.00, 0.000, 0.000, 0.000, 11:04:36.180
62, 23.11, -0.56, 0.00, 0.00, 0.000, 0.000, 0.000, 11:04:36.181
63, 26.32, 2.09, 0.00, 0.00, 0.000, 0.000, 0.000, 11:04:36.196
64, 24.39, -2.53, 0.00, 0.00, 0.000, 0.000, 0.000, 11:04:36.196
65, 26.40, 2.42, 0.00, 0.00, 0.000, 0.000, 0.000, 11:04:36.197
66, 23.03, -7.75, 0.00, 0.00, 0.000, 0.000, 0.000, 11:04:36.197
67, 24.51, -0.90, 0.00, 0.00, 0.000, 0.000, 0.000, 11:04:36.210
68, 29.43, -2.07, 0.00, 0.00, 0.000, 0.000, 0.000, 11:04:36.211
69, 27.17, 0.42, 0.00, 0.00, 0.000, 0.000, 0.000, 11:04:36.226
70, 26.98, -3.44, 0.00, 0.00, 0.000, 0.000, 0.000, 11:04:36.226
71, 24.79, 4.76, 0.00, 0.00, 0.000, 0.000, 0.000, 11:04:36.226
72, 23.03, 2.28, 0.00, 0.00, 0.000, 0.000, 0.000, 11:04:36.226
73, 20.83, -1.77, 0.00, 0.00, 0.000, 0.000, 0.000, 11:04:36.241
74, 21.70, 0.14, 0.00, 0.00, 0.000, 0.000, 0.000, 11:04:36.241
75, 23.35, -3.40, 0.00, 0.00, 0.000, 0.000, 0.000, 11:04:36.256
76, 21.83, -1.06, 0.00, 0.00, 0.000, 0.000, 0.000, 11:04:36.256
77, 20.90, 0.40, 0.00, 0.00, 0.000, 0.000, 0.000, 11:04:36.256
78, 21.38, -3.18, 0.00, 0.00, 0.000, 0.000, 0.000, 11:04:36.256
79, 23.91, -1.01, 0.00, 0.00, 0.000, 0.000, 0.000, 11:04:36.271
80, 23.51, 2.57, 0.00, 0.00, 0.000, 0.000, 0.000, 11:04:36.271
81, 23.38, -2.18, 0.00, 0.00, 0.000, 0.000, 0.000, 11:04:36.285
82, 21.90, -4.84, 0.00, 0.00, 0.000, 0.000, 0.000, 11:04:36.286
83, 24.78, -0.69, 0.00, 0.00, 0.000, 0.000, 0.000, 11:04:36.286
84, 26.55, 1.44, 0.00, 0.00, 0.000, 0.000, 0.000, 11:04:36.286
85, 23.96, 1.29, 0.00, 0.00, 0.000, 0.000, 0.000, 11:04:36.301
86, 27.23, -3.93, 0.00, 0.00, 0.000, 0.000, 0.000, 11:04:36.301
87, 25.38, -1.58, 0.00, 0.00, 0.000, 0.000, 0.000, 11:04:36.315
88, 28.93, -4.26, 0.00, 0.00, 0.000, 0.000, 0.000, 11:04:36.315
89, 26.36, -0.86, 0.00, 0.00, 0.000, 0.000, 0.000, 11:04:36.316
90, 24.65, -6.65, 0.00, 0.00, 0.000, 0.000, 0.000, 11:04:36.316
91, 25.58, -1.02, 0.00, 0.00, 0.000, 0.000, 0.000, 11:04:36.331
92, 27.55, 1.87, 0.00, 0.00, 0.000, 0.000, 0.000, 11:04:36.332
93, 26.23, -0.23, 0.00, 0.00, 0.000, 0.000, 0.000, 11:04:36.346
94, 23.91, -2.16, 0.00, 0.00, 0.000, 0.000, 0.000, 11:04:36.346
95, 20.88, 3.97, 0.00, 0.00, 0.000, 0.000, 0.000, 11:04:36.347
96, 25.65, -0.25, 0.00, 0.00, 0.000, 0.000, 0.000, 11:04:36.347
97, 24.22, 1.61, 0.00, 0.00, 0.000, 0.000, 0.000, 11:04:36.361
98, 22.22, 0.22, 0.00, 0.00, 0.000, 0.000, 0.000, 11:04:36.361
99, 25.93, -1.51, 0.00, 0.00, 0.000, 0.000, 0.000, 11:04:36.375
100, 25.40, -2.29, 0.00, 0.00, 0.000, 0.000, 0.000, 11:04:36.376
101, 26.64, -2.67, 0.00, 0.00, 0.000, 0.000, 0.000, 11:04:36.376
102, 26.10, -4.87, 0.00, 0.00, 0.000, 0.000, 0.000, 11:04:36.376
103, 26.34, -6.90, 0.00, 0.00, 0.000, 0.000, 0.000, 11:04:36.390
104, 31.19, -2.89, 0.00, 0.00, 0.000, 0.000, 0.000, 11:04:36.390
105, 28.74, -3.78, 0.00, 0.00, 0.000, 0.000, 0.000, 11:04:36.406
106, 27.29, -7.59, 0.00, 0.00, 0.000, 0.000, 0.000, 11:04:36.406
107, 27.62, -2.67, 0.00, 0.00, 0.000, 0.000, 0.000, 11:04:36.406
108, 30.51, -1.62, 0.00, 0.00, 0.000, 0.000, 0.000, 11:04:36.406
109, 26.89, -4.89, 0.00, 0.00, 0.000, 0.000, 0.000, 11:04:36.421
110, 30.34, -0.77, 0.00, 0.00, 0.000, 0.000, 0.000, 11:04:36.422
111, 30.64, -2.94, 0.00, 0.00, 0.000, 0.000, 0.000, 11:04:36.436
112, 30.57, -2.44, 0.00, 0.00, 0.000, 0.000, 0.000, 11:04:36.437
113, 31.26, -0.77, 0.00, 0.00, 0.000, 0.000, 0.000, 11:04:36.437
114, 27.15, -4.17, 0.00, 0.00, 0.000, 0.000, 0.000, 11:04:36.438
115, 29.65, 3.05, 0.00, 0.00, 0.000, 0.000, 0.000, 11:04:36.450
116, 29.44, 1.59, 0.00, 0.00, 0.000, 0.000, 0.000, 11:04:36.450
117, 31.93, -0.28, 0.00, 0.00, 0.000, 0.000, 0.000, 11:04:36.466
118, 27.69, -2.00, 0.00, 0.00, 0.000, 0.000, 0.000, 11:04:36.466
119, 29.67, 0.40, 0.00, 0.00, 0.000, 0.000, 0.000, 11:04:36.466
120, 27.94, -5.42, 0.00, 0.00, 0.000, 0.000, 0.000, 11:04:36.466
121, 28.06, 7.10, 0.00, 0.00, 0.000, 0.000, 0.000, 11:04:36.480
122, 28.70, 1.10, 0.00, 0.00, 0.000, 0.000, 0.000, 11:04:36.480
123, 25.78, 4.36, 0.00, 0.00, 0.000, 0.000, 0.000, 11:04:36.496
124, 26.93, 3.44, 0.00, 0.00, 0.000, 0.000, 0.000, 11:04:36.496
125, 24.89, 2.05, 0.00, 0.00, 0.000, 0.000, 0.000, 11:04:36.496
126, 23.74, -0.52, 0.00, 0.00, 0.000, 0.000, 0.000, 11:04:36.496
127, 22.64, 2.06, 0.00, 0.00, 0.000, 0.000, 0.000, 11:04:36.510
128, 23.11, 3.93, 0.00, 0.00, 0.000, 0.000, 0.000, 11:04:36.510
129, 25.06, -0.33, 0.00, 0.00, 0.000, 0.000, 0.000, 11:04:36.525
130, 20.73, -1.75, 0.00, 0.00, 0.000, 0.000, 0.000, 11:04:36.525
131, 21.95, -1.22, 0.00, 0.00, 0.000, 0.000, 0.000, 11:04:36.526
132, 24.02, -2.50, 0.00, 0.00, 0.000, 0.000, 0.000, 11:04:36.526
133, 23.61, -2.34, 0.00, 0.00, 0.000, 0.000, 0.000, 11:04:36.540
134, 21.28, -1.99, 0.00, 0.00, 0.000, 0.000, 0.000, 11:04:36.540
135, 18.14, 0.40, 0.00, 0.00, 0.000, 0.000, 0.000, 11:04:36.555
136, 21.93, 1.58, 0.00, 0.00, 0.000, 0.000, 0.000, 11:04:36.556
137, 20.45, -1.63, 0.00, 0.00, 0.000, 0.000, 0.000, 11:04:36.556
138, 18.95, -2.82, 0.00, 0.00, 0.000, 0.000, 0.000, 11:04:36.556
139, 21.04, -4.93, 0.00, 0.00, 0.000, 0.000, 0.000, 11:04:36.577
140, 24.17, 0.38, 0.00, 0.00, 0.000, 0.000, 0.000, 11:04:36.578
141, 22.01, -4.07, 0.00, 0.00, 0.000, 0.000, 0.000, 11:04:36.586
142, 20.91, -4.60, 0.00, 0.00, 0.000, 0.000, 0.000, 11:04:36.586
143, 20.59, -1.15, 0.00, 0.00, 0.000, 0.000, 0.000, 11:04:36.586
144, 22.92, -5.35, 0.00, 0.00, 0.000, 0.000, 0.000, 11:04:36.586
145, 21.43, -5.84, 0.00, 0.00, 0.000, 0.000, 0.000, 11:04:36.601
146, 18.67, -4.51, 0.00, 0.00, 0.000, 0.000, 0.000, 11:04:36.601
147, 24.59, -2.48, 0.00, 0.00, 0.000, 0.000, 0.000, 11:04:36.615
148, 24.36, -0.89, 0.00, 0.00, 0.000, 0.000, 0.000, 11:04:36.615
149, 20.13, -4.27, 0.00, 0.00, 0.000, 0.000, 0.000, 11:04:36.616
150, 18.16, -4.45, 0.00, 0.00, 0.000, 0.000, 0.000, 11:04:36.616
151, 25.24, -4.22, 0.00, 0.00, 0.000, 0.000, 0.000, 11:04:36.630
152, 22.61, -2.00, 0.00, 0.00, 0.000, 0.000, 0.000, 11:04:36.630
153, 23.27, -6.15, 0.00, 0.00, 0.000, 0.000, 0.000, 11:04:36.645
154, 25.11, -6.20, 0.00, 0.00, 0.000, 0.000, 0.000, 11:04:36.646
155, 26.00, -1.23, 0.00, 0.00, 0.000, 0.000, 0.000, 11:04:36.646
156, 29.11, -9.22, 0.00, 0.00, 0.000, 0.000, 0.000, 11:04:36.646
157, 27.61, -6.36, 0.00, 0.00, 0.000, 0.000, 0.000, 11:04:36.660
158, 25.42, -7.12, 0.00, 0.00, 0.000, 0.000, 0.000, 11:04:36.660
159, 29.28, -5.83, 0.00, 0.00, 0.000, 0.000, 0.000, 11:04:36.676
160, 32.96, -7.78, 0.00, 0.00, 0.000, 0.000, 0.000, 11:04:36.676
161, 30.24, -6.18, 0.00, 0.00, 0.000, 0.000, 0.000, 11:04:36.676
162, 29.18, -6.32, 0.00, 0.00, 0.000, 0.000, 0.000, 11:04:36.676
163, 27.26, -5.81, 0.00, 0.00, 0.000, 0.000, 0.000, 11:04:36.691
164, 28.25, -1.80, 0.00, 0.00, 0.000, 0.000, 0.000, 11:04:36.691
165, 26.32, -6.23, 0.00, 0.00, 0.000, 0.000, 0.000, 11:04:36.705
166, 28.43, -5.11, 0.00, 0.00, 0.000, 0.000, 0.000, 11:04:36.706
167, 25.77, -2.41, 0.00, 0.00, 0.000, 0.000, 0.000, 11:04:36.706
168, 27.84, 1.37, 0.00, 0.00, 0.000, 0.000, 0.000, 11:04:36.706
169, 26.36, -1.85, 0.00, 0.00, 0.000, 0.000, 0.000, 11:04:36.720
170, 26.03, -2.34, 0.00, 0.00, 0.000, 0.000, 0.000, 11:04:36.720
171, 28.35, -1.55, 0.00, 0.00, 0.000, 0.000, 0.000, 11:04:36.738
172, 24.86, 3.72, 0.00, 0.00, 0.000, 0.000, 0.000, 11:04:36.738
173, 25.48, 1.77, 0.00, 0.00, 0.000, 0.000, 0.000, 11:04:36.739
174, 26.04, -1.59, 0.00, 0.00, 0.000, 0.000, 0.000, 11:04:36.739
175, 22.75, -1.59, 0.00, 0.00, 0.000, 0.000, 0.000, 11:04:36.751
176, 29.28, 6.08, 0.00, 0.00, 0.000, 0.000, 0.000, 11:04:36.751
177, 28.36, -0.54, 0.00, 0.00, 0.000, 0.000, 0.000, 11:04:36.766
178, 25.40, -1.63, 0.00, 0.00, 0.000, 0.000, 0.000, 11:04:36.766
179, 24.83, -0.27, 0.00, 0.00, 0.000, 0.000, 0.000, 11:04:36.766
180, 29.94, -3.04, 0.00, 0.00, 0.000, 0.000, 0.000, 11:04:36.766
181, 27.42, -5.13, 0.00, 0.00, 0.000, 0.000, 0.000, 11:04:36.780
182, 26.87, -3.70, 0.00, 0.00, 0.000, 0.000, 0.000, 11:04:36.781
183, 27.07, -4.40, 0.00, 0.00, 0.000, 0.000, 0.000, 11:04:36.795
184, 27.42, -2.95, 0.00, 0.00, 0.000, 0.000, 0.000, 11:04:36.795
185, 28.56, -2.14, 0.00, 0.00, 0.000, 0.000, 0.000, 11:04:36.796
186, 26.33, -6.31, 0.00, 0.00, 0.000, 0.000, 0.000, 11:04:36.796
187, 27.32, -2.77, 0.00, 0.00, 0.000, 0.000, 0.000, 11:04:36.810
188, 28.60, -4.74, 0.00, 0.00, 0.000, 0.000, 0.000, 11:04:36.810
189, 29.08, -6.69, 0.00, 0.00, 0.000, 0.000, 0.000, 11:04:36.826
190, 26.58, -9.08, 0.00, 0.00, 0.000, 0.000, 0.000, 11:04:36.826
191, 29.88, -8.37, 0.00, 0.00, 0.000, 0.000, 0.000, 11:04:36.827
192, 33.13, -5.13, 0.00, 0.00, 0.000, 0.000, 0.000, 11:04:36.827
193, 31.93, -6.84, 0.00, 0.00, 0.000, 0.000, 0.000, 11:04:36.840
194, 33.12, -3.57, 0.00, 0.00, 0.000, 0.000, 0.000, 11:04:36.840
195, 35.40, -4.42, 0.00, 0.00, 0.000, 0.000, 0.000, 11:04:36.856
196, 34.94, -7.01, 0.00, 0.00, 0.000, 0.000, 0.000, 11:04:36.856
197, 35.59, -0.78, 0.00, 0.00, 0.000, 0.000, 0.000, 11:04:36.856
198, 30.89, -5.56, 0.00, 0.00, 0.000, 0.000, 0.000, 11:04:36.856
199, 31.84, -5.56, 0.00, 0.00, 0.000, 0.000, 0.000, 11:04:36.871
200, 33.55, 1.34, 0.00, 0.00, 0.000, 0.000, 0.000, 11:04:36.871
0, 28.17, -5.43, 0.00, 0.00, 0.000, 0.000, 0.000, 11:04:36.871
1, 26.36, -3.61, 0.00, 0.00, 0.000, 0.000, 0.000, 11:04:36.885
2, 30.66, 2.49, 0.00, 0.00, 0.000, 0.000, 0.000, 11:04:36.885
3, 29.88, -3.94, 0.00, 0.00, 0.000, 0.000, 0.000, 11:04:36.901
4, 30.65, -4.83, 0.00, 0.00, 0.000, 0.000, 0.000, 11:04:36.901
5, 28.20, -1.87, 0.00, 0.00, 0.000, 0.000, 0.000, 11:04:36.901
6, 29.07, -1.15, 0.00, 0.00, 0.000, 0.000, 0.000, 11:04:36.901
7, 29.70, -0.46, 0.00, 0.00, 0.000, 0.000, 0.000, 11:04:36.916
8, 28.90, 1.14, 0.00, 0.00, 0.000, 0.000, 0.000, 11:04:36.916
9, 26.64, -4.96, 0.00, 0.00, 0.000, 0.000, 0.000, 11:04:36.933
10, 29.66, -2.67, 0.00, 0.00, 0.000, 0.000, 0.000, 11:04:36.933
11, 31.24, 3.94, 0.00, 0.00, 0.000, 0.000, 0.000, 11:04:36.938
12, 31.06, -2.23, 0.00, 0.00, 0.000, 0.000, 0.000, 11:04:36.938
13, 28.11, -1.29, 0.00, 0.00, 0.000, 0.000, 0.000, 11:04:36.945
14, 31.44, 1.86, 0.00, 0.00, 0.000, 0.000, 0.000, 11:04:36.945
15, 30.74, 4.33, 0.00, 0.00, 0.000, 0.000, 0.000, 11:04:36.960
16, 27.17, -0.20, 0.00, 0.00, 0.000, 0.000, 0.000, 11:04:36.961
17, 26.44, 3.82, 0.00, 0.00, 0.000, 0.000, 0.000, 11:04:36.961
18, 26.26, 3.24, 0.00, 0.00, 0.000, 0.000, 0.000, 11:04:36.961
19, 24.66, 7.58, 0.00, 0.00, 0.000, 0.000, 0.000, 11:04:36.975
20, 26.23, 2.45, 0.00, 0.00, 0.000, 0.000, 0.000, 11:04:36.976
21, 24.40, -4.21, 0.00, 0.00, 0.000, 0.000, 0.000, 11:04:36.990
22, 23.65, 0.66, 0.00, 0.00, 0.000, 0.000, 0.000, 11:04:36.991
23, 25.82, 5.83, 0.00, 0.00, 0.000, 0.000, 0.000, 11:04:36.991
24, 26.05, -1.44, 0.00, 0.00, 0.000, 0.000, 0.000, 11:04:36.991
25, 23.67, -1.70, 0.00, 0.00, 0.000, 0.000, 0.000, 11:04:37.005
26, 27.14, 0.82, 0.00, 0.00, 0.000, 0.000, 0.000, 11:04:37.005
27, 24.20, 1.84, 0.00, 0.00, 0.000, 0.000, 0.000, 11:04:37.020
28, 29.39, -2.49, 0.00, 0.00, 0.000, 0.000, 0.000, 11:04:37.020
29, 26.87, -2.95, 0.00, 0.00, 0.000, 0.000, 0.000, 11:04:37.020
30, 26.39, -0.27, 0.00, 0.00, 0.000, 0.000, 0.000, 11:04:37.021
31, 28.02, 4.24, 0.00, 0.00, 0.000, 0.000, 0.000, 11:04:37.036
32, 22.99, 2.94, 0.00, 0.00, 0.000, 0.000, 0.000, 11:04:37.036
33, 23.98, -1.54, 0.00, 0.00, 0.000, 0.000, 0.000, 11:04:37.050
34, 26.77, 1.85, 0.00, 0.00, 0.000, 0.000, 0.000, 11:04:37.050
35, 23.23, 3.26, 0.00, 0.00, 0.000, 0.000, 0.000, 11:04:37.050
36, 24.85, -0.83, 0.00, 0.00, 0.000, 0.000, 0.000, 11:04:37.050
37, 23.10, -0.05, 0.00, 0.00, 0.000, 0.000, 0.000, 11:04:37.065
38, 23.96, 3.20, 0.00, 0.00, 0.000, 0.000, 0.000, 11:04:37.066
39, 23.98, -0.94, 0.00, 0.00, 0.000, 0.000, 0.000, 11:04:37.080
40, 21.87, -5.72, 0.00, 0.00, 0.000, 0.000, 0.000, 11:04:37.081
41, 20.12, -3.20, 0.00, 0.00, 0.000, 0.000, 0.000, 11:04:37.082
42, 23.74, -3.03, 0.00, 0.00, 0.000, 0.000, 0.000, 11:04:37.082
43, 25.52, -1.93, 0.00, 0.00, 0.000, 0.000, 0.000, 11:04:37.095
44, 21.32, -2.52, 0.00, 0.00, 0.000, 0.000, 0.000, 11:04:37.096
45, 21.89, -5.08, 0.00, 0.00, 0.000, 0.000, 0.000, 11:04:37.110
46, 24.42, -0.82, 0.00, 0.00, 0.000, 0.000, 0.000, 11:04:37.111
47, 25.64, 3.49, 0.00, 0.00, 0.000, 0.000, 0.000, 11:04:37.111
48, 23.60, -1.67, 0.00, 0.00, 0.000, 0.000, 0.000, 11:04:37.111
49, 24.41, -1.50, 0.00, 0.00, 0.000, 0.000, 0.000, 11:04:37.125
50, 19.98, 2.09, 0.00, 0.00, 0.000, 0.000, 0.000, 11:04:37.126
51, 24.33, -1.92, 0.00, 0.00, 0.000, 0.000, 0.000, 11:04:37.141
52, 22.30, -2.59, 0.00, 0.00, 0.000, 0.000, 0.000, 11:04:37.141
53, 24.45, -5.59, 0.00, 0.00, 0.000, 0.000, 0.000, 11:04:37.141
54, 25.57, -0.56, 0.00, 0.00, 0.000, 0.000, 0.000, 11:04:37.142
55, 26.54, -2.20, 0.00, 0.00, 0.000, 0.000, 0.000, 11:04:37.155
56, 29.69, 1.68, 0.00, 0.00, 0.000, 0.000, 0.000, 11:04:37.156
57, 26.99, -3.03, 0.00, 0.00, 0.000, 0.000, 0.000, 11:04:37.171
58, 26.15, -0.79, 0.00, 0.00, 0.000, 0.000, 0.000, 11:04:37.171
59, 29.80, -1.29, 0.00, 0.00, 0.000, 0.000, 0.000, 11:04:37.172
60, 27.77, -2.59, 0.00, 0.00, 0.000, 0.000, 0.000, 11:04:37.172
61, 28.23, -4.44, 0.00, 0.00, 0.000, 0.000, 0.000, 11:04:37.185
62, 29.60, -1.43, 0.00, 0.00, 0.000, 0.000, 0.000, 11:04:37.186
63, 30.33, -6.56, 0.00, 0.00, 0.000, 0.000, 0.000, 11:04:37.203
64, 29.00, -4.46, 0.00, 0.00, 0.000, 0.000, 0.000, 11:04:37.203
65, 28.69, -3.27, 0.00, 0.00, 0.000, 0.000, 0.000, 11:04:37.203
66, 28.54, -3.55, 0.00, 0.00, 0.000, 0.000, 0.000, 11:04:37.203
67, 30.04, -3.06, 0.00, 0.00, 0.000, 0.000, 0.000, 11:04:37.215
68, 30.01, -2.45, 0.00, 0.00, 0.000, 0.000, 0.000, 11:04:37.215
69, 27.57, -1.23, 0.00, 0.00, 0.000, 0.000, 0.000, 11:04:37.230
70, 31.14, -1.64, 0.00, 0.00, 0.000, 0.000, 0.000, 11:04:37.230
71, 27.44, 3.57, 0.00, 0.00, 0.000, 0.000, 0.000, 11:04:37.237
72, 22.52, -2.17, 0.00, 0.00, 0.000, 0.000, 0.000, 11:04:37.238
73, 25.54, 1.66, 0.00, 0.00, 0.000, 0.000, 0.000, 11:04:37.245
74, 26.85, 2.52, 0.00, 0.00, 0.000, 0.000, 0.000, 11:04:37.245
75, 24.51, -2.51, 0.00, 0.00, 0.000, 0.000, 0.000, 11:04:37.260
76, 24.65, -2.95, 0.00, 0.00, 0.000, 0.000, 0.000, 11:04:37.260
77, 25.74, -1.60, 0.00, 0.00, 0.000, 0.000, 0.000, 11:04:37.260
78, 25.36, -0.64, 0.00, 0.00, 0.000, 0.000, 0.000, 11:04:37.261
79, 29.39, -1.01, 0.00, 0.00, 0.000, 0.000, 0.000, 11:04:37.275
80, 21.02, 0.48, 0.00, 0.00, 0.000, 0.000, 0.000, 11:04:37.275
81, 18.18, -3.66, 0.00, 0.00, 0.000, 0.000, 0.000, 11:04:37.290
82, 19.64, -0.02, 0.00, 0.00, 0.000, 0.000, 0.000, 11:04:37.290
83, 22.68, -0.22, 0.00, 0.00, 0.000, 0.000, 0.000, 11:04:37.291
84, 20.27, 0.77, 0.00, 0.00, 0.000, 0.000, 0.000, 11:04:37.291
85, 22.56, -3.97, 0.00, 0.00, 0.000, 0.000, 0.000, 11:04:37.305
86, 21.43, 2.10, 0.00, 0.00, 0.000, 0.000, 0.000, 11:04:37.305
87, 21.28, -3.12, 0.00, 0.00, 0.000, 0.000, 0.000, 11:04:37.319
88, 23.14, 0.80, 0.00, 0.00, 0.000, 0.000, 0.000, 11:04:37.320
89, 19.59, -2.01, 0.00, 0.00, 0.000, 0.000, 0.000, 11:04:37.320
90, 21.02, -3.61, 0.00, 0.00, 0.000, 0.000, 0.000, 11:04:37.320
91, 24.66, -2.68, 0.00, 0.00, 0.000, 0.000, 0.000, 11:04:37.335
92, 22.91, -2.69, 0.00, 0.00, 0.000, 0.000, 0.000, 11:04:37.335
93, 20.28, -4.38, 0.00, 0.00, 0.000, 0.000, 0.000, 11:04:37.350
94, 22.88, -1.94, 0.00, 0.00, 0.000, 0.000, 0.000, 11:04:37.350
95, 26.45, 1.03, 0.00, 0.00, 0.000, 0.000, 0.000, 11:04:37.350
96, 25.11, -2.56, 0.00, 0.00, 0.000, 0.000, 0.000, 11:04:37.350
97, 25.95, -6.09, 0.00, 0.00, 0.000, 0.000, 0.000, 11:04:37.365
98, 26.38, 0.62, 0.00, 0.00, 0.000, 0.000, 0.000, 11:04:37.365
99, 28.70, -2.28, 0.00, 0.00, 0.000, 0.000, 0.000, 11:04:37.380
100, 26.73, -3.51, 0.00, 0.00, 0.000, 0.000, 0.000, 11:04:37.381
101, 25.42, -1.36, 0.00, 0.00, 0.000, 0.000, 0.000, 11:04:37.381
102, 24.31, 3.88, 0.00, 0.00, 0.000, 0.000, 0.000, 11:04:37.381
103, 28.41, -1.34, 0.00, 0.00, 0.000, 0.000, 0.000, 11:04:37.395
104, 22.63, -1.83, 0.00, 0.00, 0.000, 0.000, 0.000, 11:04:37.395
105, 25.07, -2.46, 0.00, 0.00, 0.000, 0.000, 0.000, 11:04:37.411
106, 23.67, -5.15, 0.00, 0.00, 0.000, 0.000, 0.000, 11:04:37.411
107, 27.10, -3.96, 0.00, 0.00, 0.000, 0.000, 0.000, 11:04:37.411
108, 25.15, -4.21, 0.00, 0.00, 0.000, 0.000, 0.000, 11:04:37.411
109, 26.51, -4.39, 0.00, 0.00, 0.000, 0.000, 0.000, 11:04:37.425
110, 26.01, 0.10, 0.00, 0.00, 0.000, 0.000, 0.000, 11:04:37.425
111, 23.85, -1.12, 0.00, 0.00, 0.000, 0.000, 0.000, 11:04:37.443
112, 23.76, -4.57, 0.00, 0.00, 0.000, 0.000, 0.000, 11:04:37.443
113, 24.20, -3.26, 0.00, 0.00, 0.000, 0.000, 0.000, 11:04:37.443
114, 24.20, -3.09, 0.00, 0.00, 0.000, 0.000, 0.000, 11:04:37.443
115, 26.63, -3.32, 0.00, 0.00, 0.000, 0.000, 0.000, 11:04:37.457
116, 28.63, -4.79, 0.00, 0.00, 0.000, 0.000, 0.000, 11:04:37.457
117, 25.59, -5.03, 0.00, 0.00, 0.000, 0.000, 0.000, 11:04:37.470
118, 28.84, -6.83, 0.00, 0.00, 0.000, 0.000, 0.000, 11:04:37.470
119, 28.40, -3.79, 0.00, 0.00, 0.000, 0.000, 0.000, 11:04:37.471
120, 27.50, -8.32, 0.00, 0.00, 0.000, 0.000, 0.000, 11:04:37.471
121, 29.08, -7.00, 0.00, 0.00, 0.000, 0.000, 0.000, 11:04:37.485
122, 28.78, -4.89, 0.00, 0.00, 0.000, 0.000, 0.000, 11:04:37.486
123, 30.91, -2.46, 0.00, 0.00, 0.000, 0.000, 0.000, 11:04:37.500
124, 29.16, -4.49, 0.00, 0.00, 0.000, 0.000, 0.000, 11:04:37.500
125, 30.29, -3.30, 0.00, 0.00, 0.000, 0.000, 0.000, 11:04:37.501
126, 27.23, -2.27, 0.00, 0.00, 0.000, 0.000, 0.000, 11:04:37.501
127, 27.48, -1.24, 0.00, 0.00, 0.000, 0.000, 0.000, 11:04:37.515
128, 28.43, -1.83, 0.00, 0.00, 0.000, 0.000, 0.000, 11:04:37.516
129, 28.85, -6.25, 0.00, 0.00, 0.000, 0.000, 0.000, 11:04:37.531
130, 27.68, -6.54, 0.00, 0.00, 0.000, 0.000, 0.000, 11:04:37.531
131, 33.63, -2.98, 0.00, 0.00, 0.000, 0.000, 0.000, 11:04:37.532
132, 32.52, -7.25, 0.00, 0.00, 0.000, 0.000, 0.000, 11:04:37.532
133, 33.14, -4.84, 0.00, 0.00, 0.000, 0.000, 0.000, 11:04:37.545
134, 31.70, -2.34, 0.00, 0.00, 0.000, 0.000, 0.000, 11:04:37.546
135, 33.57, -4.35, 0.00, 0.00, 0.000, 0.000, 0.000, 11:04:37.560
136, 29.26, -3.39, 0.00, 0.00, 0.000, 0.000, 0.000, 11:04:37.561
137, 26.85, 1.01, 0.00, 0.00, 0.000, 0.000, 0.000, 11:04:37.561
138, 28.27, -4.42, 0.00, 0.00, 0.000, 0.000, 0.000, 11:04:37.561
139, 30.98, -4.19, 0.00, 0.00, 0.000, 0.000, 0.000, 11:04:37.575
140, 29.79, -2.43, 0.00, 0.00, 0.000, 0.000, 0.000, 11:04:37.575
141, 29.46, -4.27, 0.00, 0.00, 0.000, 0.000, 0.000, 11:04:37.590
142, 31.11, 2.17, 0.00, 0.00, 0.000, 0.000, 0.000, 11:04:37.590
143, 32.54, 4.66, 0.00, 0.00, 0.000, 0.000, 0.000, 11:04:37.590
144, 29.06, -5.23, 0.00, 0.00, 0.000, 0.000, 0.000, 11:04:37.590
145, 26.87, -2.62, 0.00, 0.00, 0.000, 0.000, 0.000, 11:04:37.607
146, 30.07, -0.61, 0.00, 0.00, 0.000, 0.000, 0.000, 11:04:37.607
147, 32.52, 1.51, 0.00, 0.00, 0.000, 0.000, 0.000, 11:04:37.621
148, 27.03, 0.00, 0.00, 0.00, 0.000, 0.000, 0.000, 11:04:37.621
149, 26.44, 1.36, 0.00, 0.00, 0.000, 0.000, 0.000, 11:04:37.621
150, 27.82, 1.28, 0.00, 0.00, 0.000, 0.000, 0.000, 11:04:37.621
151, 26.29, 5.54, 0.00, 0.00, 0.000, 0.000, 0.000, 11:04:37.636
152, 23.15, 5.71, 0.00, 0.00, 0.000, 0.000, 0.000, 11:04:37.636
153, 23.69, 3.63, 0.00, 0.00, 0.000, 0.000, 0.000, 11:04:37.650
154, 24.11, 4.15, 0.00, 0.00, 0.000, 0.000, 0.000, 11:04:37.650
155, 23.98, 6.87, 0.00, 0.00, 0.000, 0.000, 0.000, 11:04:37.651
156, 22.17, 2.68, 0.00, 0.00, 0.000, 0.000, 0.000, 11:04:37.651
157, 24.79, -1.22, 0.00, 0.00, 0.000, 0.000, 0.000, 11:04:37.665
158, 24.47, 2.81, 0.00, 0.00, 0.000, 0.000, 0.000, 11:04:37.665
159, 23.56, 5.83, 0.00, 0.00, 0.000, 0.000, 0.000, 11:04:37.683
160, 23.83, 2.68, 0.00, 0.00, 0.000, 0.000, 0.000, 11:04:37.683
161, 24.77, 1.04, 0.00, 0.00, 0.000, 0.000, 0.000, 11:04:37.683
162, 23.25, 1.94, 0.00, 0.00, 0.000, 0.000, 0.000, 11:04:37.683
163, 28.41, 5.79, 0.00, 0.00, 0.000, 0.000, 0.000, 11:04:37.696
164, 22.01, 0.50, 0.00, 0.00, 0.000, 0.000, 0.000, 11:04:37.696
165, 22.64, -2.45, 0.00, 0.00, 0.000, 0.000, 0.000, 11:04:37.711
166, 20.78, -3.85, 0.00, 0.00, 0.000, 0.000, 0.000, 11:04:37.711
167, 27.69, 1.28, 0.00, 0.00, 0.000, 0.000, 0.000, 11:04:37.711
168, 26.19, -1.98, 0.00, 0.00, 0.000, 0.000, 0.000, 11:04:37.711
169, 26.59, -2.34, 0.00, 0.00, 0.000, 0.000, 0.000, 11:04:37.726
170, 27.42, 6.09, 0.00, 0.00, 0.000, 0.000, 0.000, 11:04:37.726
171, 24.20, -1.52, 0.00, 0.00, 0.000, 0.000, 0.000, 11:04:37.740
172, 27.51, -0.57, 0.00, 0.00, 0.000, 0.000, 0.000, 11:04:37.740
173, 30.97, -1.17, 0.00, 0.00, 0.000, 0.000, 0.000, 11:04:37.741
174, 27.51, 0.45, 0.00, 0.00, 0.000, 0.000, 0.000, 11:04:37.741
175, 27.98, -1.84, 0.00, 0.00, 0.000, 0.000, 0.000, 11:04:37.755
176, 26.66, -0.52, 0.00, 0.00, 0.000, 0.000, 0.000, 11:04:37.755
177, 28.42, 0.40, 0.00, 0.00, 0.000, 0.000, 0.000, 11:04:37.770
178, 26.74, -1.15, 0.00, 0.00, 0.000, 0.000, 0.000, 11:04:37.770
179, 27.02, 9.04, 0.00, 0.00, 0.000, 0.000, 0.000, 11:04:37.771
180, 28.61, 0.84, 0.00, 0.00, 0.000, 0.000, 0.000, 11:04:37.771
181, 25.05, -1.48, 0.00, 0.00, 0.000, 0.000, 0.000, 11:04:37.788
182, 27.55, 4.66, 0.00, 0.00, 0.000, 0.000, 0.000, 11:04:37.789
183, 26.02, 4.79, 0.00, 0.00, 0.000, 0.000, 0.000, 11:04:37.802
184, 26.89, 3.61, 0.00, 0.00, 0.000, 0.000, 0.000, 11:04:37.802
185, 23.97, 2.95, 0.00, 0.00, 0.000, 0.000, 0.000, 11:04:37.802
186, 24.01, 8.60, 0.00, 0.00, 0.000, 0.000, 0.000, 11:04:37.803
187, 25.43, 7.38, 0.00, 0.00, 0.000, 0.000, 0.000, 11:04:37.815
188, 23.93, 4.08, 0.00, 0.00, 0.000, 0.000, 0.000, 11:04:37.816
189, 19.75, -1.38, 0.00, 0.00, 0.000, 0.000, 0.000, 11:04:37.831
190, 23.41, 4.57, 0.00, 0.00, 0.000, 0.000, 0.000, 11:04:37.831
191, 23.35, 7.94, 0.00, 0.00, 0.000, 0.000, 0.000, 11:04:37.832
192, 21.39, -2.27, 0.00, 0.00, 0.000, 0.000, 0.000, 11:04:37.832
193, 22.79, 0.03, 0.00, 0.00, 0.000, 0.000, 0.000, 11:04:37.845
194, 24.23, 3.12, 0.00, 0.00, 0.000, 0.000, 0.000, 11:04:37.846
195, 25.42, 0.65, 0.00, 0.00, 0.000, 0.000, 0.000, 11:04:37.860
196, 22.40, -3.79, 0.00, 0.00, 0.000, 0.000, 0.000, 11:04:37.861
197, 21.42, 0.00, 0.00, 0.00, 0.000, 0.000, 0.000, 11:04:37.861
198, 22.40, -2.46, 0.00, 0.00, 0.000, 0.000, 0.000, 11:04:37.861
199, 23.84, -0.70, 0.00, 0.00, 0.000, 0.000, 0.000, 11:04:37.875
200, 23.73, 3.57, 0.00, 0.00, 0.000, 0.000, 0.000, 11:04:37.875
0, 21.37, 0.15, 0.00, 0.00, 0.000, 0.000, 0.000, 11:04:37.876
1, 21.04, 1.99, 0.00, 0.00, 0.000, 0.000, 0.000, 11:04:37.890
2, 19.63, 8.74, 0.00, 0.00, 0.000, 0.000, 0.000, 11:04:37.890
3, 18.24, -5.80, 0.00, 0.00, 0.000, 0.000, 0.000, 11:04:37.906
4, 21.77, -7.17, 0.00, 0.00, 0.000, 0.000, 0.000, 11:04:37.906
5, 21.27, 0.54, 0.00, 0.00, 0.000, 0.000, 0.000, 11:04:37.906
6, 20.53, 4.74, 0.00, 0.00, 0.000, 0.000, 0.000, 11:04:37.906
7, 18.31, -1.94, 0.00, 0.00, 0.000, 0.000, 0.000, 11:04:37.920
8, 20.09, 2.64, 0.00, 0.00, 0.000, 0.000, 0.000, 11:04:37.921
9, 18.62, -0.61, 0.00, 0.00, 0.000, 0.000, 0.000, 11:04:37.936
10, 24.52, -2.94, 0.00, 0.00, 0.000, 0.000, 0.000, 11:04:37.936
11, 19.84, 0.04, 0.00, 0.00, 0.000, 0.000, 0.000, 11:04:37.936
12, 20.13, -1.49, 0.00, 0.00, 0.000, 0.000, 0.000, 11:04:37.936
13, 18.09, 2.18, 0.00, 0.00, 0.000, 0.000, 0.000, 11:04:37.953
14, 20.41, 4.22, 0.00, 0.00, 0.000, 0.000, 0.000, 11:04:37.953
15, 18.06, 2.01, 0.00, 0.00, 0.000, 0.000, 0.000, 11:04:37.965
16, 15.99, -2.10, 0.00, 0.00, 0.000, 0.000, 0.000, 11:04:37.966
17, 23.09, 3.97, 0.00, 0.00, 0.000, 0.000, 0.000, 11:04:37.966
18, 23.23, -1.02, 0.00, 0.00, 0.000, 0.000, 0.000, 11:04:37.966
19, 19.63, -2.88, 0.00, 0.00, 0.000, 0.000, 0.000, 11:04:37.981
20, 20.81, -2.15, 0.00, 0.00, 0.000, 0.000, 0.000, 11:04:37.981
21, 23.25, -3.36, 0.00, 0.00, 0.000, 0.000, 0.000, 11:04:37.995
22, 25.63, 0.06, 0.00, 0.00, 0.000, 0.000, 0.000, 11:04:37.995
23, 20.06, 2.35, 0.00, 0.00, 0.000, 0.000, 0.000, 11:04:37.996
24, 22.98, -1.94, 0.00, 0.00, 0.000, 0.000, 0.000, 11:04:37.996
25, 24.75, -1.72, 0.00, 0.00, 0.000, 0.000, 0.000, 11:04:38.011
26, 23.28, -0.12, 0.00, 0.00, 0.000, 0.000, 0.000, 11:04:38.011
27, 22.20, -4.60, 0.00, 0.00, 0.000, 0.000, 0.000, 11:04:38.025
28, 22.02, -2.60, 0.00, 0.00, 0.000, 0.000, 0.000, 11:04:38.025
29, 24.45, -1.14, 0.00, 0.00, 0.000, 0.000, 0.000, 11:04:38.026
30, 23.58, 0.68, 0.00, 0.00, 0.000, 0.000, 0.000, 11:04:38.026
31, 22.44, -5.65, 0.00, 0.00, 0.000, 0.000, 0.000, 11:04:38.040
32, 19.36, -6.49, 0.00, 0.00, 0.000, 0.000, 0.000, 11:04:38.040
33, 21.68, -1.33, 0.00, 0.00, 0.000, 0.000, 0.000, 11:04:38.055
34, 24.01, -0.83, 0.00, 0.00, 0.000, 0.000, 0.000, 11:04:38.055
35, 20.28, -1.13, 0.00, 0.00, 0.000, 0.000, 0.000, 11:04:38.056
36, 20.47, -5.22, 0.00, 0.00, 0.000, 0.000, 0.000, 11:04:38.056
37, 21.32, -1.46, 0.00, 0.00, 0.000, 0.000, 0.000, 11:04:38.070
38, 23.85, 6.09, 0.00, 0.00, 0.000, 0.000, 0.000, 11:04:38.070
39, 20.13, -2.90, 0.00, 0.00, 0.000, 0.000, 0.000, 11:04:38.084
40, 19.76, -4.76, 0.00, 0.00, 0.000, 0.000, 0.000, 11:04:38.085
41, 24.33, -0.25, 0.00, 0.00, 0.000, 0.000, 0.000, 11:04:38.085
42, 21.73, -0.57, 0.00, 0.00, 0.000, 0.000, 0.000, 11:04:38.085
43, 24.33, -5.35, 0.00, 0.00, 0.000, 0.000, 0.000, 11:04:38.101
44, 26.83, -1.23, 0.00, 0.00, 0.000, 0.000, 0.000, 11:04:38.101
45, 23.74, -3.87, 0.00, 0.00, 0.000, 0.000, 0.000, 11:04:38.115
46, 24.19, -3.33, 0.00, 0.00, 0.000, 0.000, 0.000, 11:04:38.115
47, 20.10, -0.62, 0.00, 0.00, 0.000, 0.000, 0.000, 11:04:38.115
48, 21.75, -2.75, 0.00, 0.00, 0.000, 0.000, 0.000, 11:04:38.116
49, 24.70, -4.25, 0.00, 0.00, 0.000, 0.000, 0.000, 11:04:38.131
50, 22.92, -1.51, 0.00, 0.00, 0.000, 0.000, 0.000, 11:04:38.131
51, 22.90, -5.44, 0.00, 0.00, 0.000, 0.000, 0.000, 11:04:38.146
52, 22.73, -1.33, 0.00, 0.00, 0.000, 0.000, 0.000, 11:04:38.146
53, 23.17, -0.24, 0.00, 0.00, 0.000, 0.000, 0.000, 11:04:38.147
54, 26.56, -2.54, 0.00, 0.00, 0.000, 0.000, 0.000, 11:04:38.147
55, 22.78, -4.64, 0.00, 0.00, 0.000, 0.000, 0.000, 11:04:38.167
56, 23.63, -4.60, 0.00, 0.00, 0.000, 0.000, 0.000, 11:04:38.168
57, 25.06, -2.29, 0.00, 0.00, 0.000, 0.000, 0.000, 11:04:38.176
58, 23.03, -1.82, 0.00, 0.00, 0.000, 0.000, 0.000, 11:04:38.176
59, 24.80, -1.33, 0.00, 0.00, 0.000, 0.000, 0.000, 11:04:38.176
60, 29.21, -5.00, 0.00, 0.00, 0.000, 0.000, 0.000, 11:04:38.177
61, 28.89, -2.24, 0.00, 0.00, 0.000, 0.000, 0.000, 11:04:38.205
62, 25.29, 4.40, 0.00, 0.00, 0.000, 0.000, 0.000, 11:04:38.205
63, 24.16, 0.65, 0.00, 0.00, 0.000, 0.000, 0.000, 11:04:38.206
64, 24.94, -0.66, 0.00, 0.00, 0.000, 0.000, 0.000, 11:04:38.206
65, 26.18, 3.34, 0.00, 0.00, 0.000, 0.000, 0.000, 11:04:38.207
66, 24.89, 3.27, 0.00, 0.00, 0.000, 0.000, 0.000, 11:04:38.207
67, 25.63, -2.54, 0.00, 0.00, 0.000, 0.000, 0.000, 11:04:38.220
68, 26.62, 0.98, 0.00, 0.00, 0.000, 0.000, 0.000, 11:04:38.220
69, 24.49, 0.48, 0.00, 0.00, 0.000, 0.000, 0.000, 11:04:38.235
70, 26.15, -1.67, 0.00, 0.00, 0.000, 0.000, 0.000, 11:04:38.235
71, 25.44, -1.39, 0.00, 0.00, 0.000, 0.000, 0.000, 11:04:38.236
72, 24.89, -6.70, 0.00, 0.00, 0.000, 0.000, 0.000, 11:04:38.236
73, 25.24, -4.73, 0.00, 0.00, 0.000, 0.000, 0.000, 11:04:38.250
74, 24.28, -2.36, 0.00, 0.00, 0.000, 0.000, 0.000, 11:04:38.250
75, 24.14, -4.24, 0.00, 0.00, 0.000, 0.000, 0.000, 11:04:38.266
76, 26.88, -2.33, 0.00, 0.00, 0.000, 0.000, 0.000, 11:04:38.266
77, 26.53, 3.60, 0.00, 0.00, 0.000, 0.000, 0.000, 11:04:38.266
78, 27.04, -1.34, 0.00, 0.00, 0.000, 0.000, 0.000, 11:04:38.267
79, 26.13, -1.50, 0.00, 0.00, 0.000, 0.000, 0.000, 11:04:38.281
80, 25.76, -2.93, 0.00, 0.00, 0.000, 0.000, 0.000, 11:04:38.281
81, 24.54, -3.04, 0.00, 0.00, 0.000, 0.000, 0.000, 11:04:38.295
82, 30.83, -2.44, 0.00, 0.00, 0.000, 0.000, 0.000, 11:04:38.296
83, 22.93, -2.86, 0.00, 0.00, 0.000, 0.000, 0.000, 11:04:38.296
84, 24.42, -1.93, 0.00, 0.00, 0.000, 0.000, 0.000, 11:04:38.297
85, 23.71, 2.83, 0.00, 0.00, 0.000, 0.000, 0.000, 11:04:38.311
86, 27.36, -3.14, 0.00, 0.00, 0.000, 0.000, 0.000, 11:04:38.312
87, 24.58, -2.65, 0.00, 0.00, 0.000, 0.000, 0.000, 11:04:38.325
88, 26.04, -1.76, 0.00, 0.00, 0.000, 0.000, 0.000, 11:04:38.325
89, 27.08, -1.70, 0.00, 0.00, 0.000, 0.000, 0.000, 11:04:38.325
90, 24.73, -5.10, 0.00, 0.00, 0.000, 0.000, 0.000, 11:04:38.325
91, 25.24, -2.76, 0.00, 0.00, 0.000, 0.000, 0.000, 11:04:38.340
92, 26.07, -4.13, 0.00, 0.00, 0.000, 0.000, 0.000, 11:04:38.340
93, 29.28, -0.20, 0.00, 0.00, 0.000, 0.000, 0.000, 11:04:38.355
94, 29.26, -4.57, 0.00, 0.00, 0.000, 0.000, 0.000, 11:04:38.355
95, 27.02, -1.25, 0.00, 0.00, 0.000, 0.000, 0.000, 11:04:38.356
96, 27.84, -5.27, 0.00, 0.00, 0.000, 0.000, 0.000, 11:04:38.356
97, 26.08, -2.99, 0.00, 0.00, 0.000, 0.000, 0.000, 11:04:38.370
98, 26.19, 0.68, 0.00, 0.00, 0.000, 0.000, 0.000, 11:04:38.370
99, 25.77, -3.52, 0.00, 0.00, 0.000, 0.000, 0.000, 11:04:38.385
100, 28.16, -0.86, 0.00, 0.00, 0.000, 0.000, 0.000, 11:04:38.386
101, 26.59, 0.74, 0.00, 0.00, 0.000, 0.000, 0.000, 11:04:38.415
102, 27.14, 4.83, 0.00, 0.00, 0.000, 0.000, 0.000, 11:04:38.415
103, 26.12, -0.73, 0.00, 0.00, 0.000, 0.000, 0.000, 11:04:38.415
104, 25.41, 0.11, 0.00, 0.00, 0.000, 0.000, 0.000, 11:04:38.415
105, 24.38, -0.38, 0.00, 0.00, 0.000, 0.000, 0.000, 11:04:38.415
106, 24.95, -2.37, 0.00, 0.00, 0.000, 0.000, 0.000, 11:04:38.416
107, 19.61, -5.88, 0.00, 0.00, 0.000, 0.000, 0.000, 11:04:38.417
108, 20.73, -2.75, 0.00, 0.00, 0.000, 0.000, 0.000, 11:04:38.417
109, 24.62, -3.55, 0.00, 0.00, 0.000, 0.000, 0.000, 11:04:38.430
110, 25.23, -2.90, 0.00, 0.00, 0.000, 0.000, 0.000, 11:04:38.430
111, 21.42, -5.97, 0.00, 0.00, 0.000, 0.000, 0.000, 11:04:38.445
112, 19.90, -0.80, 0.00, 0.00, 0.000, 0.000, 0.000, 11:04:38.445
113, 21.30, 0.30, 0.00, 0.00, 0.000, 0.000, 0.000, 11:04:38.445
114, 22.81, -2.53, 0.00, 0.00, 0.000, 0.000, 0.000, 11:04:38.445
115, 22.15, -4.87, 0.00, 0.00, 0.000, 0.000, 0.000, 11:04:38.460
116, 23.28, -4.45, 0.00, 0.00, 0.000, 0.000, 0.000, 11:04:38.460
117, 25.30, -1.81, 0.00, 0.00, 0.000, 0.000, 0.000, 11:04:38.475
118, 23.35, -5.39, 0.00, 0.00, 0.000, 0.000, 0.000, 11:04:38.476
119, 23.12, -2.12, 0.00, 0.00, 0.000, 0.000, 0.000, 11:04:38.483
120, 22.40, -5.50, 0.00, 0.00, 0.000, 0.000, 0.000, 11:04:38.483
121, 25.53, -6.01, 0.00, 0.00, 0.000, 0.000, 0.000, 11:04:38.490
122, 25.07, -0.43, 0.00, 0.00, 0.000, 0.000, 0.000, 11:04:38.490
123, 27.54, -8.15, 0.00, 0.00, 0.000, 0.000, 0.000, 11:04:38.505
124, 29.87, -4.35, 0.00, 0.00, 0.000, 0.000, 0.000, 11:04:38.505
125, 30.84, -3.74, 0.00, 0.00, 0.000, 0.000, 0.000, 11:04:38.505
126, 30.85, -6.89, 0.00, 0.00, 0.000, 0.000, 0.000, 11:04:38.505
127, 28.99, -7.27, 0.00, 0.00, 0.000, 0.000, 0.000, 11:04:38.521
128, 28.69, -4.89, 0.00, 0.00, 0.000, 0.000, 0.000, 11:04:38.521
129, 31.94, -8.23, 0.00, 0.00, 0.000, 0.000, 0.000, 11:04:38.536
130, 30.81, -4.78, 0.00, 0.00, 0.000, 0.000, 0.000, 11:04:38.536
131, 31.94, -7.88, 0.00, 0.00, 0.000, 0.000, 0.000, 11:04:38.536
132, 31.04, -6.74, 0.00, 0.00, 0.000, 0.000, 0.000, 11:04:38.537
133, 31.86, -6.29, 0.00, 0.00, 0.000, 0.000, 0.000, 11:04:38.551
134, 30.37, -3.15, 0.00, 0.00, 0.000, 0.000, 0.000, 11:04:38.551
135, 29.46, -7.55, 0.00, 0.00, 0.000, 0.000, 0.000, 11:04:38.565
136, 29.97, -7.64, 0.00, 0.00, 0.000, 0.000, 0.000, 11:04:38.566
137, 27.98, -6.74, 0.00, 0.00, 0.000, 0.000, 0.000, 11:04:38.566
138, 28.75, -5.15, 0.00, 0.00, 0.000, 0.000, 0.000, 11:04:38.566
139, 25.79, -8.12, 0.00, 0.00, 0.000, 0.000, 0.000, 11:04:38.581
140, 26.52, -4.10, 0.00, 0.00, 0.000, 0.000, 0.000, 11:04:38.581
141, 24.48, -4.10, 0.00, 0.00, 0.000, 0.000, 0.000, 11:04:38.596
142, 29.35, -6.92, 0.00, 0.00, 0.000, 0.000, 0.000, 11:04:38.596
143, 23.78, -0.56, 0.00, 0.00, 0.000, 0.000, 0.000, 11:04:38.597
144, 27.63, -7.56, 0.00, 0.00, 0.000, 0.000, 0.000, 11:04:38.597
145, 24.75, -5.95, 0.00, 0.00, 0.000, 0.000, 0.000, 11:04:38.615
146, 27.04, -3.58, 0.00, 0.00, 0.000, 0.000, 0.000, 11:04:38.615
147, 23.61, -6.92, 0.00, 0.00, 0.000, 0.000, 0.000, 11:04:38.626
148, 23.35, -7.72, 0.00, 0.00, 0.000, 0.000, 0.000, 11:04:38.626
149, 24.30, -6.19, 0.00, 0.00, 0.000, 0.000, 0.000, 11:04:38.626
150, 26.55, -7.08, 0.00, 0.00, 0.000, 0.000, 0.000, 11:04:38.626
151, 25.04, -4.73, 0.00, 0.00, 0.000, 0.000, 0.000, 11:04:38.641
152, 23.59, -6.12, 0.00, 0.00, 0.000, 0.000, 0.000, 11:04:38.641
153, 27.51, -3.17, 0.00, 0.00, 0.000, 0.000, 0.000, 11:04:38.655
154, 23.81, -3.85, 0.00, 0.00, 0.000, 0.000, 0.000, 11:04:38.655
155, 28.18, -10.74, 0.00, 0.00, 0.000, 0.000, 0.000, 11:04:38.656
156, 25.63, -6.85, 0.00, 0.00, 0.000, 0.000, 0.000, 11:04:38.656
157, 27.99, -5.44, 0.00, 0.00, 0.000, 0.000, 0.000, 11:04:38.670
158, 25.62, -7.18, 0.00, 0.00, 0.000, 0.000, 0.000, 11:04:38.670
159, 24.70, -8.41, 0.00, 0.00, 0.000, 0.000, 0.000, 11:04:38.685
160, 26.72, -7.53, 0.00, 0.00, 0.000, 0.000, 0.000, 11:04:38.686
161, 27.16, -4.52, 0.00, 0.00, 0.000, 0.000, 0.000, 11:04:38.686
162, 26.54, -7.25, 0.00, 0.00, 0.000, 0.000, 0.000, 11:04:38.686
163, 25.99, -4.73, 0.00, 0.00, 0.000, 0.000, 0.000, 11:04:38.701
164, 28.00, -6.11, 0.00, 0.00, 0.000, 0.000, 0.000, 11:04:38.701
165, 24.79, -4.03, 0.00, 0.00, 0.000, 0.000, 0.000, 11:04:38.715
166, 25.56, -5.04, 0.00, 0.00, 0.000, 0.000, 0.000, 11:04:38.715
167, 25.50, -4.42, 0.00, 0.00, 0.000, 0.000, 0.000, 11:04:38.716
168, 25.65, -6.08, 0.00, 0.00, 0.000, 0.000, 0.000, 11:04:38.716
169, 25.69, -7.03, 0.00, 0.00, 0.000, 0.000, 0.000, 11:04:38.730
170, 25.82, -7.37, 0.00, 0.00, 0.000, 0.000, 0.000, 11:04:38.730
171, 27.32, -9.41, 0.00, 0.00, 0.000, 0.000, 0.000, 11:04:38.746
172, 24.61, -8.30, 0.00, 0.00, 0.000, 0.000, 0.000, 11:04:38.746
173, 25.57, -4.04, 0.00, 0.00, 0.000, 0.000, 0.000, 11:04:38.746
174, 26.91, -6.01, 0.00, 0.00, 0.000, 0.000, 0.000, 11:04:38.746
175, 28.31, -4.81, 0.00, 0.00, 0.000, 0.000, 0.000, 11:04:38.760
176, 26.97, -4.80, 0.00, 0.00, 0.000, 0.000, 0.000, 11:04:38.760
177, 26.96, -6.41, 0.00, 0.00, 0.000, 0.000, 0.000, 11:04:38.776
178, 25.92, -5.17, 0.00, 0.00, 0.000, 0.000, 0.000, 11:04:38.776
179, 26.70, -6.18, 0.00, 0.00, 0.000, 0.000, 0.000, 11:04:38.776
180, 24.79, -7.08, 0.00, 0.00, 0.000, 0.000, 0.000, 11:04:38.776
181, 30.14, -6.43, 0.00, 0.00, 0.000, 0.000, 0.000, 11:04:38.790
182, 28.27, -0.66, 0.00, 0.00, 0.000, 0.000, 0.000, 11:04:38.791
183, 26.72, -5.79, 0.00, 0.00, 0.000, 0.000, 0.000, 11:04:38.805
184, 29.35, -4.03, 0.00, 0.00, 0.000, 0.000, 0.000, 11:04:38.805
185, 31.65, -3.53, 0.00, 0.00, 0.000, 0.000, 0.000, 11:04:38.806
186, 31.05, -4.42, 0.00, 0.00, 0.000, 0.000, 0.000, 11:04:38.806
187, 30.75, -4.42, 0.00, 0.00, 0.000, 0.000, 0.000, 11:04:38.820
188, 30.76, -0.65, 0.00, 0.00, 0.000, 0.000, 0.000, 11:04:38.820
189, 31.10, -2.42, 0.00, 0.00, 0.000, 0.000, 0.000, 11:04:38.835
190, 31.02, -0.74, 0.00, 0.00, 0.000, 0.000, 0.000, 11:04:38.835
191, 31.31, -3.07, 0.00, 0.00, 0.000, 0.000, 0.000, 11:04:38.836
192, 30.77, -3.74, 0.00, 0.00, 0.000, 0.000, 0.000, 11:04:38.836
193, 31.07, -0.65, 0.00, 0.00, 0.000, 0.000, 0.000, 11:04:38.851
194, 30.82, 0.87, 0.00, 0.00, 0.000, 0.000, 0.000, 11:04:38.851
195, 32.21, -2.19, 0.00, 0.00, 0.000, 0.000, 0.000, 11:04:38.866
196, 32.89, -2.78, 0.00, 0.00, 0.000, 0.000, 0.000, 11:04:38.866
197, 31.06, 9.02, 0.00, 0.00, 0.000, 0.000, 0.000, 11:04:38.866
198, 28.38, 0.30, 0.00, 0.00, 0.000, 0.000, 0.000, 11:04:38.867
199, 31.64, 3.79, 0.00, 0.00, 0.000, 0.000, 0.000, 11:04:38.881
200, 30.48, 3.50, 0.00, 0.00, 0.000, 0.000, 0.000, 11:04:38.881
0, 29.64, 3.73, 0.00, 0.00, 0.000, 0.000, 0.000, 11:04:38.881
1, 30.82, 9.45, 0.00, 0.00, 0.000, 0.000, 0.000, 11:04:38.902
2, 27.75, 7.91, 0.00, 0.00, 0.000, 0.000, 0.000, 11:04:38.902
3, 30.37, 0.91, 0.00, 0.00, 0.000, 0.000, 0.000, 11:04:38.910
4, 31.01, 3.01, 0.00, 0.00, 0.000, 0.000, 0.000, 11:04:38.910
5, 27.06, 5.83, 0.00, 0.00, 0.000, 0.000, 0.000, 11:04:38.910
6, 26.44, -4.34, 0.00, 0.00, 0.000, 0.000, 0.000, 11:04:38.911
7, 27.33, 2.52, 0.00, 0.00, 0.000, 0.000, 0.000, 11:04:38.925
8, 24.83, 8.23, 0.00, 0.00, 0.000, 0.000, 0.000, 11:04:38.925
9, 26.43, 3.75, 0.00, 0.00, 0.000, 0.000, 0.000, 11:04:38.941
10, 25.26, 3.65, 0.00, 0.00, 0.000, 0.000, 0.000, 11:04:38.941
11, 22.66, 1.37, 0.00, 0.00, 0.000, 0.000, 0.000, 11:04:38.941
12, 27.73, 2.05, 0.00, 0.00, 0.000, 0.000, 0.000, 11:04:38.942
13, 23.51, 3.71, 0.00, 0.00, 0.000, 0.000, 0.000, 11:04:38.955
14, 21.63, 1.51, 0.00, 0.00, 0.000, 0.000, 0.000, 11:04:38.956
15, 22.13, -0.99, 0.00, 0.00, 0.000, 0.000, 0.000, 11:04:38.972
16, 23.02, 1.97, 0.00, 0.00, 0.000, 0.000, 0.000, 11:04:38.973
17, 20.79, 0.62, 0.00, 0.00, 0.000, 0.000, 0.000, 11:04:38.973
18, 23.25, -3.90, 0.00, 0.00, 0.000, 0.000, 0.000, 11:04:38.973
19, 24.42, -3.48, 0.00, 0.00, 0.000, 0.000, 0.000, 11:04:38.987
20, 22.64, -1.22, 0.00, 0.00, 0.000, 0.000, 0.000, 11:04:38.987
21, 24.43, -0.56, 0.00, 0.00, 0.000, 0.000, 0.000, 11:04:39.000
22, 24.23, -3.70, 0.00, 0.00, 0.000, 0.000, 0.000, 11:04:39.001
23, 21.94, -0.71, 0.00, 0.00, 0.000, 0.000, 0.000, 11:04:39.001
24, 25.60, -1.97, 0.00, 0.00, 0.000, 0.000, 0.000, 11:04:39.001
25, 25.89, -4.09, 0.00, 0.00, 0.000, 0.000, 0.000, 11:04:39.016
26, 23.45, -1.09, 0.00, 0.00, 0.000, 0.000, 0.000, 11:04:39.017
27, 21.86, -2.10, 0.00, 0.00, 0.000, 0.000, 0.000, 11:04:39.030
28, 22.73, 0.00, 0.00, 0.00, 0.000, 0.000, 0.000, 11:04:39.030
29, 24.25, -2.04, 0.00, 0.00, 0.000, 0.000, 0.000, 11:04:39.031
30, 24.18, -6.87, 0.00, 0.00, 0.000, 0.000, 0.000, 11:04:39.031
31, 25.15, -7.51, 0.00, 0.00, 0.000, 0.000, 0.000, 11:04:39.046
32, 22.42, 2.38, 0.00, 0.00, 0.000, 0.000, 0.000, 11:04:39.046
33, 25.49, 2.47, 0.00, 0.00, 0.000, 0.000, 0.000, 11:04:39.075
34, 23.75, 1.61, 0.00, 0.00, 0.000, 0.000, 0.000, 11:04:39.075
35, 23.48, 1.16, 0.00, 0.00, 0.000, 0.000, 0.000, 11:04:39.075
36, 26.67, 1.56, 0.00, 0.00, 0.000, 0.000, 0.000, 11:04:39.075
37, 27.44, 4.43, 0.00, 0.00, 0.000, 0.000, 0.000, 11:04:39.075
38, 26.57, -0.20, 0.00, 0.00, 0.000, 0.000, 0.000, 11:04:39.076
39, 24.71, -0.38, 0.00, 0.00, 0.000, 0.000, 0.000, 11:04:39.076
40, 27.22, -1.50, 0.00, 0.00, 0.000, 0.000, 0.000, 11:04:39.077
41, 29.44, 10.57, 0.00, 0.00, 0.000, 0.000, 0.000, 11:04:39.089
42, 26.61, 1.24, 0.00, 0.00, 0.000, 0.000, 0.000, 11:04:39.090
43, 28.47, 1.14, 0.00, 0.00, 0.000, 0.000, 0.000, 11:04:39.105
44, 28.08, 3.98, 0.00, 0.00, 0.000, 0.000, 0.000, 11:04:39.106
45, 27.90, 3.39, 0.00, 0.00, 0.000, 0.000, 0.000, 11:04:39.120
46, 27.19, -2.02, 0.00, 0.00, 0.000, 0.000, 0.000, 11:04:39.121
47, 27.43, 9.31, 0.00, 0.00, 0.000, 0.000, 0.000, 11:04:39.121
48, 26.88, 5.31, 0.00, 0.00, 0.000, 0.000, 0.000, 11:04:39.121
49, 30.94, 2.60, 0.00, 0.00, 0.000, 0.000, 0.000, 11:04:39.135
50, 25.74, 4.04, 0.00, 0.00, 0.000, 0.000, 0.000, 11:04:39.135
51, 25.67, 1.76, 0.00, 0.00, 0.000, 0.000, 0.000, 11:04:39.150
52, 26.55, 1.71, 0.00, 0.00, 0.000, 0.000, 0.000, 11:04:39.150
53, 28.83, 8.18, 0.00, 0.00, 0.000, 0.000, 0.000, 11:04:39.151
54, 26.81, 2.04, 0.00, 0.00, 0.000, 0.000, 0.000, 11:04:39.151
55, 25.08, -2.13, 0.00, 0.00, 0.000, 0.000, 0.000, 11:04:39.165
56, 26.53, 9.16, 0.00, 0.00, 0.000, 0.000, 0.000, 11:04:39.165
57, 25.29, 6.28, 0.00, 0.00, 0.000, 0.000, 0.000, 11:04:39.196
58, 23.34, 2.31, 0.00, 0.00, 0.000, 0.000, 0.000, 11:04:39.196
59, 22.51, 4.69, 0.00, 0.00, 0.000, 0.000, 0.000, 11:04:39.196
60, 25.95, 3.87, 0.00, 0.00, 0.000, 0.000, 0.000, 11:04:39.196
61, 28.23, 9.10, 0.00, 0.00, 0.000, 0.000, 0.000, 11:04:39.197
62, 25.95, 0.04, 0.00, 0.00, 0.000, 0.000, 0.000, 11:04:39.197
63, 23.43, -0.50, 0.00, 0.00, 0.000, 0.000, 0.000, 11:04:39.198
64, 26.45, 5.53, 0.00, 0.00, 0.000, 0.000, 0.000, 11:04:39.198
65, 27.35, 3.81, 0.00, 0.00, 0.000, 0.000, 0.000, 11:04:39.210
66, 25.51, -1.21, 0.00, 0.00, 0.000, 0.000, 0.000, 11:04:39.210
67, 26.34, -0.35, 0.00, 0.00, 0.000, 0.000, 0.000, 11:04:39.225
68, 27.43, 1.19, 0.00, 0.00, 0.000, 0.000, 0.000, 11:04:39.225
69, 26.73, 3.27, 0.00, 0.00, 0.000, 0.000, 0.000, 11:04:39.240
70, 22.29, 2.37, 0.00, 0.00, 0.000, 0.000, 0.000, 11:04:39.240
71, 26.00, 4.31, 0.00, 0.00, 0.000, 0.000, 0.000, 11:04:39.241
72, 26.19, 7.91, 0.00, 0.00, 0.000, 0.000, 0.000, 11:04:39.241
73, 24.99, 1.79, 0.00, 0.00, 0.000, 0.000, 0.000, 11:04:39.255
74, 25.46, 3.23, 0.00, 0.00, 0.000, 0.000, 0.000, 11:04:39.255
75, 25.20, -4.22, 0.00, 0.00, 0.000, 0.000, 0.000, 11:04:39.270
76, 25.62, 7.75, 0.00, 0.00, 0.000, 0.000, 0.000, 11:04:39.271
77, 27.74, 4.81, 0.00, 0.00, 0.000, 0.000, 0.000, 11:04:39.285
78, 24.44, 0.81, 0.00, 0.00, 0.000, 0.000, 0.000, 11:04:39.285
79, 26.56, -1.44, 0.00, 0.00, 0.000, 0.000, 0.000, 11:04:39.286
80, 27.88, 4.10, 0.00, 0.00, 0.000, 0.000, 0.000, 11:04:39.286
81, 27.42, -1.61, 0.00, 0.00, 0.000, 0.000, 0.000, 11:04:39.300
82, 25.65, -2.65, 0.00, 0.00, 0.000, 0.000, 0.000, 11:04:39.301
83, 28.40, 0.15, 0.00, 0.00, 0.000, 0.000, 0.000, 11:04:39.301
84, 28.63, -1.02, 0.00, 0.00, 0.000, 0.000, 0.000, 11:04:39.301
85, 27.53, -1.43, 0.00, 0.00, 0.000, 0.000, 0.000, 11:04:39.315
86, 29.13, -0.70, 0.00, 0.00, 0.000, 0.000, 0.000, 11:04:39.315
87, 24.77, 3.34, 0.00, 0.00, 0.000, 0.000, 0.000, 11:04:39.330
88, 26.59, 8.85, 0.00, 0.00, 0.000, 0.000, 0.000, 11:04:39.330
89, 26.85, 1.20, 0.00, 0.00, 0.000, 0.000, 0.000, 11:04:39.330
90, 25.58, -0.59, 0.00, 0.00, 0.000, 0.000, 0.000, 11:04:39.330
91, 27.78, 0.99, 0.00, 0.00, 0.000, 0.000, 0.000, 11:04:39.352
92, 27.45, 2.81, 0.00, 0.00, 0.000, 0.000, 0.000, 11:04:39.352
93, 24.59, 6.86, 0.00, 0.00, 0.000, 0.000, 0.000, 11:04:39.360
94, 24.98, -3.04, 0.00, 0.00, 0.000, 0.000, 0.000, 11:04:39.360
95, 25.89, 4.45, 0.00, 0.00, 0.000, 0.000, 0.000, 11:04:39.361
96, 27.88, -0.07, 0.00, 0.00, 0.000, 0.000, 0.000, 11:04:39.361
97, 28.72, -0.57, 0.00, 0.00, 0.000, 0.000, 0.000, 11:04:39.375
98, 26.89, 3.38, 0.00, 0.00, 0.000, 0.000, 0.000, 11:04:39.375
99, 25.88, -2.54, 0.00, 0.00, 0.000, 0.000, 0.000, 11:04:39.390
100, 24.77, -2.26, 0.00, 0.00, 0.000, 0.000, 0.000, 11:04:39.390
101, 25.14, 2.65, 0.00, 0.00, 0.000, 0.000, 0.000, 11:04:39.390
102, 22.57, -3.25, 0.00, 0.00, 0.000, 0.000, 0.000, 11:04:39.390
103, 27.14, -2.52, 0.00, 0.00, 0.000, 0.000, 0.000, 11:04:39.406
104, 29.27, 3.54, 0.00, 0.00, 0.000, 0.000, 0.000, 11:04:39.406
105, 29.18, -0.39, 0.00, 0.00, 0.000, 0.000, 0.000, 11:04:39.421
106, 24.40, -2.52, 0.00, 0.00, 0.000, 0.000, 0.000, 11:04:39.421
107, 22.24, -2.61, 0.00, 0.00, 0.000, 0.000, 0.000, 11:04:39.421
108, 26.41, -1.98, 0.00, 0.00, 0.000, 0.000, 0.000, 11:04:39.421
109, 24.48, 0.75, 0.00, 0.00, 0.000, 0.000, 0.000, 11:04:39.436
110, 22.16, -2.96, 0.00, 0.00, 0.000, 0.000, 0.000, 11:04:39.437
111, 23.74, -4.33, 0.00, 0.00, 0.000, 0.000, 0.000, 11:04:39.451
112, 24.44, -3.58, 0.00, 0.00, 0.000, 0.000, 0.000, 11:04:39.451
113, 25.34, -1.28, 0.00, 0.00, 0.000, 0.000, 0.000, 11:04:39.451
114, 25.24, -3.22, 0.00, 0.00, 0.000, 0.000, 0.000, 11:04:39.451
115, 23.28, -4.71, 0.00, 0.00, 0.000, 0.000, 0.000, 11:04:39.466
116, 21.70, -4.97, 0.00, 0.00, 0.000, 0.000, 0.000, 11:04:39.466
117, 22.50, -4.13, 0.00, 0.00, 0.000, 0.000, 0.000, 11:04:39.481
118, 21.90, -5.06, 0.00, 0.00, 0.000, 0.000, 0.000, 11:04:39.481
119, 20.59, -5.36, 0.00, 0.00, 0.000, 0.000, 0.000, 11:04:39.481
120, 25.82, -4.64, 0.00, 0.00, 0.000, 0.000, 0.000, 11:04:39.481
121, 25.81, 0.10, 0.00, 0.00, 0.000, 0.000, 0.000, 11:04:39.495
122, 21.92, -10.42, 0.00, 0.00, 0.000, 0.000, 0.000, 11:04:39.495
123, 21.92, -11.05, 0.00, 0.00, 0.000, 0.000, 0.000, 11:04:39.525
124, 23.72, -4.27, 0.00, 0.00, 0.000, 0.000, 0.000, 11:04:39.526
125, 26.27, -6.82, 0.00, 0.00, 0.000, 0.000, 0.000, 11:04:39.526
126, 26.44, -10.55, 0.00, 0.00, 0.000, 0.000, 0.000, 11:04:39.526
127, 28.83, -10.97, 0.00, 0.00, 0.000, 0.000, 0.000, 11:04:39.526
128, 30.05, -8.17, 0.00, 0.00, 0.000, 0.000, 0.000, 11:04:39.526
129, 29.68, -11.31, 0.00, 0.00, 0.000, 0.000, 0.000, 11:04:39.527
130, 28.20, -16.76, 0.00, 0.00, 0.000, 0.000, 0.000, 11:04:39.527
131, 28.28, -12.49, 0.00, 0.00, 0.000, 0.000, 0.000, 11:04:39.541
132, 32.05, -10.81, 0.00, 0.00, 0.000, 0.000, 0.000, 11:04:39.541
133, 32.39, -8.54, 0.00, 0.00, 0.000, 0.000, 0.000, 11:04:39.556
134, 32.28, -9.75, 0.00, 0.00, 0.000, 0.000, 0.000, 11:04:39.556
135, 30.01, -7.45, 0.00, 0.00, 0.000, 0.000, 0.000, 11:04:39.571
136, 33.27, -6.90, 0.00, 0.00, 0.000, 0.000, 0.000, 11:04:39.571
137, 34.03, -5.59, 0.00, 0.00, 0.000, 0.000, 0.000, 11:04:39.572
138, 32.02, -8.07, 0.00, 0.00, 0.000, 0.000, 0.000, 11:04:39.572
139, 30.27, -8.29, 0.00, 0.00, 0.000, 0.000, 0.000, 11:04:39.586
140, 30.90, -2.02, 0.00, 0.00, 0.000, 0.000, 0.000, 11:04:39.586
141, 32.81, -6.70, 0.00, 0.00, 0.000, 0.000, 0.000, 11:04:39.600
142, 29.99, -10.48, 0.00, 0.00, 0.000, 0.000, 0.000, 11:04:39.601
143, 28.89, -5.01, 0.00, 0.00, 0.000, 0.000, 0.000, 11:04:39.601
144, 32.73, -2.46, 0.00, 0.00, 0.000, 0.000, 0.000, 11:04:39.601
145, 28.72, -6.72, 0.00, 0.00, 0.000, 0.000, 0.000, 11:04:39.617
146, 27.83, -7.03, 0.00, 0.00, 0.000, 0.000, 0.000, 11:04:39.617
147, 30.36, -4.45, 0.00, 0.00, 0.000, 0.000, 0.000, 11:04:39.630
148, 34.42, -6.28, 0.00, 0.00, 0.000, 0.000, 0.000, 11:04:39.630
149, 32.19, -4.57, 0.00, 0.00, 0.000, 0.000, 0.000, 11:04:39.631
150, 29.30, -7.99, 0.00, 0.00, 0.000, 0.000, 0.000, 11:04:39.631
151, 32.11, -4.54, 0.00, 0.00, 0.000, 0.000, 0.000, 11:04:39.645
152, 31.09, -5.75, 0.00, 0.00, 0.000, 0.000, 0.000, 11:04:39.646
153, 32.16, -7.22, 0.00, 0.00, 0.000, 0.000, 0.000, 11:04:39.660
154, 30.32, -5.57, 0.00, 0.00, 0.000, 0.000, 0.000, 11:04:39.660
155, 26.87, -3.47, 0.00, 0.00, 0.000, 0.000, 0.000, 11:04:39.660
156, 27.42, -2.89, 0.00, 0.00, 0.000, 0.000, 0.000, 11:04:39.660
157, 29.57, -4.47, 0.00, 0.00, 0.000, 0.000, 0.000, 11:04:39.676
158, 28.02, -3.73, 0.00, 0.00, 0.000, 0.000, 0.000, 11:04:39.676
159, 27.02, -3.21, 0.00, 0.00, 0.000, 0.000, 0.000, 11:04:39.690
160, 27.64, -1.22, 0.00, 0.00, 0.000, 0.000, 0.000, 11:04:39.690
161, 30.11, -5.93, 0.00, 0.00, 0.000, 0.000, 0.000, 11:04:39.697
162, 29.73, -4.81, 0.00, 0.00, 0.000, 0.000, 0.000, 11:04:39.697
163, 28.00, -3.78, 0.00, 0.00, 0.000, 0.000, 0.000, 11:04:39.705
164, 29.86, 2.21, 0.00, 0.00, 0.000, 0.000, 0.000, 11:04:39.706
165, 28.80, 0.51, 0.00, 0.00, 0.000, 0.000, 0.000, 11:04:39.720
166, 26.72, -3.10, 0.00, 0.00, 0.000, 0.000, 0.000, 11:04:39.720
167, 26.71, -2.28, 0.00, 0.00, 0.000, 0.000, 0.000, 11:04:39.720
168, 25.58, 0.03, 0.00, 0.00, 0.000, 0.000, 0.000, 11:04:39.720
169, 28.28, -2.41, 0.00, 0.00, 0.000, 0.000, 0.000, 11:04:39.751
170, 21.65, 0.11, 0.00, 0.00, 0.000, 0.000, 0.000, 11:04:39.751
171, 21.31, -5.39, 0.00, 0.00, 0.000, 0.000, 0.000, 11:04:39.751
172, 23.40, -1.66, 0.00, 0.00, 0.000, 0.000, 0.000, 11:04:39.751
173, 22.62, 2.23, 0.00, 0.00, 0.000, 0.000, 0.000, 11:04:39.752
174, 24.83, -2.41, 0.00, 0.00, 0.000, 0.000, 0.000, 11:04:39.752
175, 23.78, -0.61, 0.00, 0.00, 0.000, 0.000, 0.000, 11:04:39.765
176, 26.41, 5.30, 0.00, 0.00, 0.000, 0.000, 0.000, 11:04:39.766
177, 26.31, -2.49, 0.00, 0.00, 0.000, 0.000, 0.000, 11:04:39.781
178, 25.88, -3.28, 0.00, 0.00, 0.000, 0.000, 0.000, 11:04:39.782
179, 27.21, 0.06, 0.00, 0.00, 0.000, 0.000, 0.000, 11:04:39.782
180, 29.65, -4.20, 0.00, 0.00, 0.000, 0.000, 0.000, 11:04:39.782
181, 29.44, -2.62, 0.00, 0.00, 0.000, 0.000, 0.000, 11:04:39.795
182, 29.33, -3.59, 0.00, 0.00, 0.000, 0.000, 0.000, 11:04:39.795
183, 29.69, -1.79, 0.00, 0.00, 0.000, 0.000, 0.000, 11:04:39.810
184, 31.55, 0.64, 0.00, 0.00, 0.000, 0.000, 0.000, 11:04:39.810
185, 30.12, 2.08, 0.00, 0.00, 0.000, 0.000, 0.000, 11:04:39.810
186, 29.65, -3.64, 0.00, 0.00, 0.000, 0.000, 0.000, 11:04:39.811
187, 29.48, -4.69, 0.00, 0.00, 0.000, 0.000, 0.000, 11:04:39.825
188, 36.61, 7.49, 0.00, 0.00, 0.000, 0.000, 0.000, 11:04:39.825
189, 29.54, 2.41, 0.00, 0.00, 0.000, 0.000, 0.000, 11:04:39.856
190, 29.15, 1.06, 0.00, 0.00, 0.000, 0.000, 0.000, 11:04:39.856
191, 29.08, 1.79, 0.00, 0.00, 0.000, 0.000, 0.000, 11:04:39.856
192, 30.65, 3.08, 0.00, 0.00, 0.000, 0.000, 0.000, 11:04:39.856
193, 30.96, 9.48, 0.00, 0.00, 0.000, 0.000, 0.000, 11:04:39.856
194, 29.21, 2.12, 0.00, 0.00, 0.000, 0.000, 0.000, 11:04:39.856
195, 30.56, -2.61, 0.00, 0.00, 0.000, 0.000, 0.000, 11:04:39.857
196, 31.23, 6.08, 0.00, 0.00, 0.000, 0.000, 0.000, 11:04:39.857
197, 32.25, 6.05, 0.00, 0.00, 0.000, 0.000, 0.000, 11:04:39.871
198, 30.33, 1.81, 0.00, 0.00, 0.000, 0.000, 0.000, 11:04:39.871
199, 29.43, -0.97, 0.00, 0.00, 0.000, 0.000, 0.000, 11:04:39.886
200, 28.82, 7.90, 0.00, 0.00, 0.000, 0.000, 0.000, 11:04:39.886
0, 30.75, 0.62, 0.00, 0.00, 0.000, 0.000, 0.000, 11:04:39.886
1, 29.52, -1.05, 0.00, 0.00, 0.000, 0.000, 0.000, 11:04:39.900
2, 22.30, 5.29, 0.00, 0.00, 0.000, 0.000, 0.000, 11:04:39.900
3, 28.43, 4.38, 0.00, 0.00, 0.000, 0.000, 0.000, 11:04:39.915
4, 26.66, 4.21, 0.00, 0.00, 0.000, 0.000, 0.000, 11:04:39.916
5, 25.80, 0.87, 0.00, 0.00, 0.000, 0.000, 0.000, 11:04:39.916
6, 25.12, 2.20, 0.00, 0.00, 0.000, 0.000, 0.000, 11:04:39.916
7, 24.77, 3.99, 0.00, 0.00, 0.000, 0.000, 0.000, 11:04:39.931
8, 26.71, 2.87, 0.00, 0.00, 0.000, 0.000, 0.000, 11:04:39.931
9, 24.17, 2.24, 0.00, 0.00, 0.000, 0.000, 0.000, 11:04:39.961
10, 24.23, -1.77, 0.00, 0.00, 0.000, 0.000, 0.000, 11:04:39.961
11, 23.83, 5.23, 0.00, 0.00, 0.000, 0.000, 0.000, 11:04:39.961
12, 27.10, -1.94, 0.00, 0.00, 0.000, 0.000, 0.000, 11:04:39.962
13, 26.47, -5.94, 0.00, 0.00, 0.000, 0.000, 0.000, 11:04:39.963
14, 32.84, -5.94, 0.00, 0.00, 0.000, 0.000, 0.000, 11:04:39.964
15, 28.01, -4.66, 0.00, 0.00, 0.000, 0.000, 0.000, 11:04:39.965
16, 29.30, -1.02, 0.00, 0.00, 0.000, 0.000, 0.000, 11:04:39.965
17, 23.61, -0.64, 0.00, 0.00, 0.000, 0.000, 0.000, 11:04:39.976
18, 26.03, -2.67, 0.00, 0.00, 0.000, 0.000, 0.000, 11:04:39.976
19, 25.75, -2.32, 0.00, 0.00, 0.000, 0.000, 0.000, 11:04:39.991
20, 27.68, -4.54, 0.00, 0.00, 0.000, 0.000, 0.000, 11:04:39.991
21, 28.59, -4.58, 0.00, 0.00, 0.000, 0.000, 0.000, 11:04:40.006
22, 27.60, -5.10, 0.00, 0.00, 0.000, 0.000, 0.000, 11:04:40.006
23, 26.18, -3.06, 0.00, 0.00, 0.000, 0.000, 0.000, 11:04:40.006
24, 28.06, -0.64, 0.00, 0.00, 0.000, 0.000, 0.000, 11:04:40.006
25, 21.11, -3.48, 0.00, 0.00, 0.000, 0.000, 0.000, 11:04:40.022
26, 24.30, 1.50, 0.00, 0.00, 0.000, 0.000, 0.000, 11:04:40.022
27, 24.03, 3.61, 0.00, 0.00, 0.000, 0.000, 0.000, 11:04:40.035
28, 24.38, -2.25, 0.00, 0.00, 0.000, 0.000, 0.000, 11:04:40.035
29, 22.76, -3.36, 0.00, 0.00, 0.000, 0.000, 0.000, 11:04:40.036
30, 24.52, -0.38, 0.00, 0.00, 0.000, 0.000, 0.000, 11:04:40.036
31, 25.91, 4.11, 0.00, 0.00, 0.000, 0.000, 0.000, 11:04:40.052
32, 25.58, 1.89, 0.00, 0.00, 0.000, 0.000, 0.000, 11:04:40.052
33, 22.12, -1.64, 0.00, 0.00, 0.000, 0.000, 0.000, 11:04:40.065
34, 22.07, -2.87, 0.00, 0.00, 0.000, 0.000, 0.000, 11:04:40.065
35, 21.63, 3.29, 0.00, 0.00, 0.000, 0.000, 0.000, 11:04:40.065
36, 25.98, -2.96, 0.00, 0.00, 0.000, 0.000, 0.000, 11:04:40.065
37, 26.84, 0.02, 0.00, 0.00, 0.000, 0.000, 0.000, 11:04:40.080
38, 24.20, -2.19, 0.00, 0.00, 0.000, 0.000, 0.000, 11:04:40.080
39, 25.04, -1.23, 0.00, 0.00, 0.000, 0.000, 0.000, 11:04:40.095
40, 23.14, -2.59, 0.00, 0.00, 0.000, 0.000, 0.000, 11:04:40.095
41, 21.98, -6.33, 0.00, 0.00, 0.000, 0.000, 0.000, 11:04:40.096
42, 24.12, -3.36, 0.00, 0.00, 0.000, 0.000, 0.000, 11:04:40.098
43, 25.24, -6.15, 0.00, 0.00, 0.000, 0.000, 0.000, 11:04:40.110
44, 27.79, -0.61, 0.00, 0.00, 0.000, 0.000, 0.000, 11:04:40.110
45, 24.35, -5.11, 0.00, 0.00, 0.000, 0.000, 0.000, 11:04:40.125
46, 28.28, -3.62, 0.00, 0.00, 0.000, 0.000, 0.000, 11:04:40.126
47, 28.57, -1.44, 0.00, 0.00, 0.000, 0.000, 0.000, 11:04:40.126
48, 29.76, -3.43, 0.00, 0.00, 0.000, 0.000, 0.000, 11:04:40.126
49, 26.73, -6.08, 0.00, 0.00, 0.000, 0.000, 0.000, 11:04:40.140
50, 27.41, -1.75, 0.00, 0.00, 0.000, 0.000, 0.000, 11:04:40.140
51, 26.92, 0.32, 0.00, 0.00, 0.000, 0.000, 0.000, 11:04:40.155
52, 26.36, 3.58, 0.00, 0.00, 0.000, 0.000, 0.000, 11:04:40.155
53, 25.39, -3.07, 0.00, 0.00, 0.000, 0.000, 0.000, 11:04:40.156
54, 24.60, -2.21, 0.00, 0.00, 0.000, 0.000, 0.000, 11:04:40.156
55, 28.07, -0.34, 0.00, 0.00, 0.000, 0.000, 0.000, 11:04:40.170
56, 28.99, -5.48, 0.00, 0.00, 0.000, 0.000, 0.000, 11:04:40.170
57, 27.99, -4.48, 0.00, 0.00, 0.000, 0.000, 0.000, 11:04:40.186
58, 25.75, -2.21, 0.00, 0.00, 0.000, 0.000, 0.000, 11:04:40.187
59, 27.73, 2.85, 0.00, 0.00, 0.000, 0.000, 0.000, 11:04:40.187
60, 27.41, -1.28, 0.00, 0.00, 0.000, 0.000, 0.000, 11:04:40.187
61, 31.01, -2.84, 0.00, 0.00, 0.000, 0.000, 0.000, 11:04:40.200
62, 26.41, -0.69, 0.00, 0.00, 0.000, 0.000, 0.000, 11:04:40.200
63, 27.57, -2.73, 0.00, 0.00, 0.000, 0.000, 0.000, 11:04:40.216
64, 29.42, -4.07, 0.00, 0.00, 0.000, 0.000, 0.000, 11:04:40.216
65, 27.55, -1.94, 0.00, 0.00, 0.000, 0.000, 0.000, 11:04:40.216
66, 29.15, -0.84, 0.00, 0.00, 0.000, 0.000, 0.000, 11:04:40.216
67, 27.25, -2.25, 0.00, 0.00, 0.000, 0.000, 0.000, 11:04:40.245
68, 29.61, 2.80, 0.00, 0.00, 0.000, 0.000, 0.000, 11:04:40.245
69, 27.98, -1.57, 0.00, 0.00, 0.000, 0.000, 0.000, 11:04:40.245
70, 25.62, -2.83, 0.00, 0.00, 0.000, 0.000, 0.000, 11:04:40.246
71, 25.48, 6.78, 0.00, 0.00, 0.000, 0.000, 0.000, 11:04:40.246
72, 27.82, 8.04, 0.00, 0.00, 0.000, 0.000, 0.000, 11:04:40.246
73, 27.24, -3.50, 0.00, 0.00, 0.000, 0.000, 0.000, 11:04:40.263
74, 27.22, -1.19, 0.00, 0.00, 0.000, 0.000, 0.000, 11:04:40.263
75, 25.12, 1.18, 0.00, 0.00, 0.000, 0.000, 0.000, 11:04:40.279
76, 28.80, -3.90, 0.00, 0.00, 0.000, 0.000, 0.000, 11:04:40.279
77, 26.44, 2.19, 0.00, 0.00, 0.000, 0.000, 0.000, 11:04:40.279
78, 27.43, 4.79, 0.00, 0.00, 0.000, 0.000, 0.000, 11:04:40.280
79, 27.71, 4.18, 0.00, 0.00, 0.000, 0.000, 0.000, 11:04:40.290
80, 27.79, 4.44, 0.00, 0.00, 0.000, 0.000, 0.000, 11:04:40.291
81, 26.85, 3.14, 0.00, 0.00, 0.000, 0.000, 0.000, 11:04:40.306
82, 25.55, 8.78, 0.00, 0.00, 0.000, 0.000, 0.000, 11:04:40.306
83, 26.05, 4.38, 0.00, 0.00, 0.000, 0.000, 0.000, 11:04:40.307
84, 24.12, 2.71, 0.00, 0.00, 0.000, 0.000, 0.000, 11:04:40.307
85, 20.84, -0.80, 0.00, 0.00, 0.000, 0.000, 0.000, 11:04:40.322
86, 25.08, 4.34, 0.00, 0.00, 0.000, 0.000, 0.000, 11:04:40.322
87, 28.32, 9.65, 0.00, 0.00, 0.000, 0.000, 0.000, 11:04:40.335
88, 26.45, 6.99, 0.00, 0.00, 0.000, 0.000, 0.000, 11:04:40.335
89, 22.29, 3.41, 0.00, 0.00, 0.000, 0.000, 0.000, 11:04:40.335
90, 26.75, -0.15, 0.00, 0.00, 0.000, 0.000, 0.000, 11:04:40.336
91, 24.70, 3.48, 0.00, 0.00, 0.000, 0.000, 0.000, 11:04:40.350
92, 24.52, 4.02, 0.00, 0.00, 0.000, 0.000, 0.000, 11:04:40.350
93, 22.96, 4.54, 0.00, 0.00, 0.000, 0.000, 0.000, 11:04:40.366
94, 25.52, 1.34, 0.00, 0.00, 0.000, 0.000, 0.000, 11:04:40.366
95, 24.39, 7.63, 0.00, 0.00, 0.000, 0.000, 0.000, 11:04:40.366
96, 24.26, 3.86, 0.00, 0.00, 0.000, 0.000, 0.000, 11:04:40.366
97, 24.31, 4.76, 0.00, 0.00, 0.000, 0.000, 0.000, 11:04:40.380
98, 22.88, 5.44, 0.00, 0.00, 0.000, 0.000, 0.000, 11:04:40.380
99, 25.27, 5.57, 0.00, 0.00, 0.000, 0.000, 0.000, 11:04:40.395
100, 23.55, 4.73, 0.00, 0.00, 0.000, 0.000, 0.000, 11:04:40.396
101, 25.86, 3.03, 0.00, 0.00, 0.000, 0.000, 0.000, 11:04:40.403
102, 23.39, 0.68, 0.00, 0.00, 0.000, 0.000, 0.000, 11:04:40.403
103, 28.39, 3.52, 0.00, 0.00, 0.000, 0.000, 0.000, 11:04:40.411
104, 26.95, 2.32, 0.00, 0.00, 0.000, 0.000, 0.000, 11:04:40.411
105, 24.57, 0.27, 0.00, 0.00, 0.000, 0.000, 0.000, 11:04:40.426
106, 23.71, -1.11, 0.00, 0.00, 0.000, 0.000, 0.000, 11:04:40.427
107, 23.22, 1.61, 0.00, 0.00, 0.000, 0.000, 0.000, 11:04:40.427
108, 24.26, 1.62, 0.00, 0.00, 0.000, 0.000, 0.000, 11:04:40.427
109, 23.87, -2.14, 0.00, 0.00, 0.000, 0.000, 0.000, 11:04:40.441
110, 23.72, 0.63, 0.00, 0.00, 0.000, 0.000, 0.000, 11:04:40.441
111, 27.74, -0.81, 0.00, 0.00, 0.000, 0.000, 0.000, 11:04:40.456
112, 29.77, 0.15, 0.00, 0.00, 0.000, 0.000, 0.000, 11:04:40.456
113, 26.74, -1.24, 0.00, 0.00, 0.000, 0.000, 0.000, 11:04:40.457
114, 29.48, -3.47, 0.00, 0.00, 0.000, 0.000, 0.000, 11:04:40.457
115, 28.86, -1.30, 0.00, 0.00, 0.000, 0.000, 0.000, 11:04:40.475
116, 30.59, 1.22, 0.00, 0.00, 0.000, 0.000, 0.000, 11:04:40.475
117, 29.28, -2.72, 0.00, 0.00, 0.000, 0.000, 0.000, 11:04:40.485
118, 27.12, -1.13, 0.00, 0.00, 0.000, 0.000, 0.000, 11:04:40.485
119, 28.54, 8.71, 0.00, 0.00, 0.000, 0.000, 0.000, 11:04:40.486
120, 26.42, 5.92, 0.00, 0.00, 0.000, 0.000, 0.000, 11:04:40.486
121, 25.63, -0.53, 0.00, 0.00, 0.000, 0.000, 0.000, 11:04:40.515
122, 24.90, 1.09, 0.00, 0.00, 0.000, 0.000, 0.000, 11:04:40.516
123, 28.46, -0.47, 0.00, 0.00, 0.000, 0.000, 0.000, 11:04:40.516
124, 23.83, 4.01, 0.00, 0.00, 0.000, 0.000, 0.000, 11:04:40.516
125, 22.06, 2.83, 0.00, 0.00, 0.000, 0.000, 0.000, 11:04:40.516
126, 22.68, -0.31, 0.00, 0.00, 0.000, 0.000, 0.000, 11:04:40.516
127, 26.49, 1.53, 0.00, 0.00, 0.000, 0.000, 0.000, 11:04:40.530
128, 26.13, 2.92, 0.00, 0.00, 0.000, 0.000, 0.000, 11:04:40.530
129, 27.71, -1.32, 0.00, 0.00, 0.000, 0.000, 0.000, 11:04:40.545
130, 25.18, 0.79, 0.00, 0.00, 0.000, 0.000, 0.000, 11:04:40.545
131, 23.51, -0.21, 0.00, 0.00, 0.000, 0.000, 0.000, 11:04:40.545
132, 24.28, 1.31, 0.00, 0.00, 0.000, 0.000, 0.000, 11:04:40.546
133, 24.01, -4.07, 0.00, 0.00, 0.000, 0.000, 0.000, 11:04:40.560
134, 21.78, -0.94, 0.00, 0.00, 0.000, 0.000, 0.000, 11:04:40.560
135, 25.73, -1.25, 0.00, 0.00, 0.000, 0.000, 0.000, 11:04:40.576
136, 25.48, 1.25, 0.00, 0.00, 0.000, 0.000, 0.000, 11:04:40.576
137, 22.90, -3.52, 0.00, 0.00, 0.000, 0.000, 0.000, 11:04:40.576
138, 25.15, -4.99, 0.00, 0.00, 0.000, 0.000, 0.000, 11:04:40.576
139, 24.76, 0.40, 0.00, 0.00, 0.000, 0.000, 0.000, 11:04:40.590
140, 28.05, -2.22, 0.00, 0.00, 0.000, 0.000, 0.000, 11:04:40.590
141, 22.85, -4.21, 0.00, 0.00, 0.000, 0.000, 0.000, 11:04:40.606
142, 25.48, -0.78, 0.00, 0.00, 0.000, 0.000, 0.000, 11:04:40.606
143, 27.48, -4.95, 0.00, 0.00, 0.000, 0.000, 0.000, 11:04:40.607
144, 26.79, -3.79, 0.00, 0.00, 0.000, 0.000, 0.000, 11:04:40.607
145, 25.18, -3.77, 0.00, 0.00, 0.000, 0.000, 0.000, 11:04:40.621
146, 28.95, -3.26, 0.00, 0.00, 0.000, 0.000, 0.000, 11:04:40.621
147, 29.23, -2.73, 0.00, 0.00, 0.000, 0.000, 0.000, 11:04:40.635
148, 26.53, -4.74, 0.00, 0.00, 0.000, 0.000, 0.000, 11:04:40.635
149, 25.45, 0.75, 0.00, 0.00, 0.000, 0.000, 0.000, 11:04:40.635
150, 24.19, 0.55, 0.00, 0.00, 0.000, 0.000, 0.000, 11:04:40.636
151, 27.88, -1.41, 0.00, 0.00, 0.000, 0.000, 0.000, 11:04:40.650
152, 29.38, 3.73, 0.00, 0.00, 0.000, 0.000, 0.000, 11:04:40.651
153, 28.57, -4.64, 0.00, 0.00, 0.000, 0.000, 0.000, 11:04:40.665
154, 28.93, -2.35, 0.00, 0.00, 0.000, 0.000, 0.000, 11:04:40.665
155, 29.12, 2.23, 0.00, 0.00, 0.000, 0.000, 0.000, 11:04:40.665
156, 27.75, -3.08, 0.00, 0.00, 0.000, 0.000, 0.000, 11:04:40.665
157, 26.99, -2.73, 0.00, 0.00, 0.000, 0.000, 0.000, 11:04:40.680
158, 25.15, 1.33, 0.00, 0.00, 0.000, 0.000, 0.000, 11:04:40.680
159, 27.78, -4.47, 0.00, 0.00, 0.000, 0.000, 0.000, 11:04:40.695
160, 27.68, -1.23, 0.00, 0.00, 0.000, 0.000, 0.000, 11:04:40.695
161, 24.82, -3.35, 0.00, 0.00, 0.000, 0.000, 0.000, 11:04:40.703
162, 25.55, -3.34, 0.00, 0.00, 0.000, 0.000, 0.000, 11:04:40.703
163, 26.75, -4.67, 0.00, 0.00, 0.000, 0.000, 0.000, 11:04:40.711
164, 28.72, -3.53, 0.00, 0.00, 0.000, 0.000, 0.000, 11:04:40.711
165, 25.61, -7.32, 0.00, 0.00, 0.000, 0.000, 0.000, 11:04:40.740
166, 26.23, -5.34, 0.00, 0.00, 0.000, 0.000, 0.000, 11:04:40.741
167, 25.26, 1.56, 0.00, 0.00, 0.000, 0.000, 0.000, 11:04:40.741
168, 26.13, -7.99, 0.00, 0.00, 0.000, 0.000, 0.000, 11:04:40.741
169, 25.68, -2.34, 0.00, 0.00, 0.000, 0.000, 0.000, 11:04:40.741
170, 23.73, -1.80, 0.00, 0.00, 0.000, 0.000, 0.000, 11:04:40.741
171, 23.96, -1.53, 0.00, 0.00, 0.000, 0.000, 0.000, 11:04:40.742
172, 21.44, -0.02, 0.00, 0.00, 0.000, 0.000, 0.000, 11:04:40.742
173, 22.17, -2.57, 0.00, 0.00, 0.000, 0.000, 0.000, 11:04:40.755
174, 25.28, -6.70, 0.00, 0.00, 0.000, 0.000, 0.000, 11:04:40.755
175, 23.02, -2.53, 0.00, 0.00, 0.000, 0.000, 0.000, 11:04:40.770
176, 27.35, -2.68, 0.00, 0.00, 0.000, 0.000, 0.000, 11:04:40.771
177, 25.47, -6.59, 0.00, 0.00, 0.000, 0.000, 0.000, 11:04:40.785
178, 23.26, -6.31, 0.00, 0.00, 0.000, 0.000, 0.000, 11:04:40.786
179, 24.94, -4.75, 0.00, 0.00, 0.000, 0.000, 0.000, 11:04:40.786
180, 27.61, -4.91, 0.00, 0.00, 0.000, 0.000, 0.000, 11:04:40.786
181, 26.73, -9.45, 0.00, 0.00, 0.000, 0.000, 0.000, 11:04:40.800
182, 24.06, -7.18, 0.00, 0.00, 0.000, 0.000, 0.000, 11:04:40.801
183, 25.38, -4.17, 0.00, 0.00, 0.000, 0.000, 0.000, 11:04:40.815
184, 27.20, -4.74, 0.00, 0.00, 0.000, 0.000, 0.000, 11:04:40.815
185, 25.44, -5.36, 0.00, 0.00, 0.000, 0.000, 0.000, 11:04:40.816
186, 24.85, -5.56, 0.00, 0.00, 0.000, 0.000, 0.000, 11:04:40.816
187, 26.95, -3.25, 0.00, 0.00, 0.000, 0.000, 0.000, 11:04:40.830
188, 24.78, -3.87, 0.00, 0.00, 0.000, 0.000, 0.000, 11:04:40.830
189, 25.84, -5.74, 0.00, 0.00, 0.000, 0.000, 0.000, 11:04:40.860
190, 25.06, -5.78, 0.00, 0.00, 0.000, 0.000, 0.000, 11:04:40.860
191, 29.14, -1.10, 0.00, 0.00, 0.000, 0.000, 0.000, 11:04:40.861
192, 29.20, -5.53, 0.00, 0.00, 0.000, 0.000, 0.000, 11:04:40.861
193, 30.04, -1.22, 0.00, 0.00, 0.000, 0.000, 0.000, 11:04:40.861
194, 29.97, 2.27, 0.00, 0.00, 0.000, 0.000, 0.000, 11:04:40.861
195, 31.03, 2.55, 0.00, 0.00, 0.000, 0.000, 0.000, 11:04:40.862
196, 29.69, 0.06, 0.00, 0.00, 0.000, 0.000, 0.000, 11:04:40.863
197, 31.43, 2.21, 0.00, 0.00, 0.000, 0.000, 0.000, 11:04:40.875
198, 29.28, -5.60, 0.00, 0.00, 0.000, 0.000, 0.000, 11:04:40.876
199, 32.60, -0.23, 0.00, 0.00, 0.000, 0.000, 0.000, 11:04:40.890
200, 34.51, -3.31, 0.00, 0.00, 0.000, 0.000, 0.000, 11:04:40.890
0, 32.37, -4.62, 0.00, 0.00, 0.000, 0.000, 0.000, 11:04:40.890
1, 31.71, -1.53, 0.00, 0.00, 0.000, 0.000, 0.000, 11:04:40.905
2, 36.42, 4.40, 0.00, 0.00, 0.000, 0.000, 0.000, 11:04:40.905
3, 32.86, 3.46, 0.00, 0.00, 0.000, 0.000, 0.000, 11:04:40.920
4, 28.94, -5.00, 0.00, 0.00, 0.000, 0.000, 0.000, 11:04:40.921
5, 32.10, 2.73, 0.00, 0.00, 0.000, 0.000, 0.000, 11:04:40.921
6, 33.18, 3.64, 0.00, 0.00, 0.000, 0.000, 0.000, 11:04:40.921
7, 32.62, 0.24, 0.00, 0.00, 0.000, 0.000, 0.000, 11:04:40.935
8, 32.76, 2.45, 0.00, 0.00, 0.000, 0.000, 0.000, 11:04:40.935
9, 31.20, 2.19, 0.00, 0.00, 0.000, 0.000, 0.000, 11:04:40.950
10, 27.52, 4.21, 0.00, 0.00, 0.000, 0.000, 0.000, 11:04:40.950
11, 30.93, 8.94, 0.00, 0.00, 0.000, 0.000, 0.000, 11:04:40.950
12, 26.93, 0.73, 0.00, 0.00, 0.000, 0.000, 0.000, 11:04:40.950
13, 28.85, 2.92, 0.00, 0.00, 0.000, 0.000, 0.000, 11:04:40.966
14, 27.57, 10.83, 0.00, 0.00, 0.000, 0.000, 0.000, 11:04:40.966
15, 26.47, 9.65, 0.00, 0.00, 0.000, 0.000, 0.000, 11:04:40.981
16, 26.26, 4.22, 0.00, 0.00, 0.000, 0.000, 0.000, 11:04:40.981
17, 21.98, 3.00, 0.00, 0.00, 0.000, 0.000, 0.000, 11:04:40.981
18, 25.78, 4.63, 0.00, 0.00, 0.000, 0.000, 0.000, 11:04:40.982
19, 28.10, 0.54, 0.00, 0.00, 0.000, 0.000, 0.000, 11:04:41.002
20, 22.39, -0.26, 0.00, 0.00, 0.000, 0.000, 0.000, 11:04:41.003
21, 23.44, 0.74, 0.00, 0.00, 0.000, 0.000, 0.000, 11:04:41.011
22, 25.03, 6.51, 0.00, 0.00, 0.000, 0.000, 0.000, 11:04:41.011
23, 25.69, 6.75, 0.00, 0.00, 0.000, 0.000, 0.000, 11:04:41.012
24, 24.11, 1.01, 0.00, 0.00, 0.000, 0.000, 0.000, 11:04:41.012
25, 24.58, 2.72, 0.00, 0.00, 0.000, 0.000, 0.000, 11:04:41.026
26, 27.74, 3.38, 0.00, 0.00, 0.000, 0.000, 0.000, 11:04:41.026
27, 26.94, 0.01, 0.00, 0.00, 0.000, 0.000, 0.000, 11:04:41.041
28, 26.75, -0.75, 0.00, 0.00, 0.000, 0.000, 0.000, 11:04:41.041
29, 27.33, 3.38, 0.00, 0.00, 0.000, 0.000, 0.000, 11:04:41.042
30, 27.11, 2.03, 0.00, 0.00, 0.000, 0.000, 0.000, 11:04:41.042
31, 28.09, -0.36, 0.00, 0.00, 0.000, 0.000, 0.000, 11:04:41.056
32, 25.78, -1.95, 0.00, 0.00, 0.000, 0.000, 0.000, 11:04:41.056
33, 23.88, -1.80, 0.00, 0.00, 0.000, 0.000, 0.000, 11:04:41.071
34, 25.09, 3.81, 0.00, 0.00, 0.000, 0.000, 0.000, 11:04:41.071
35, 25.28, 0.29, 0.00, 0.00, 0.000, 0.000, 0.000, 11:04:41.071
36, 24.53, -1.38, 0.00, 0.00, 0.000, 0.000, 0.000, 11:04:41.071
37, 25.10, -2.08, 0.00, 0.00, 0.000, 0.000, 0.000, 11:04:41.086
38, 26.73, 0.87, 0.00, 0.00, 0.000, 0.000, 0.000, 11:04:41.086
39, 28.47, 3.77, 0.00, 0.00, 0.000, 0.000, 0.000, 11:04:41.101
40, 27.86, -0.51, 0.00, 0.00, 0.000, 0.000, 0.000, 11:04:41.101
41, 26.21, -0.16, 0.00, 0.00, 0.000, 0.000, 0.000, 11:04:41.102
42, 24.39, -1.13, 0.00, 0.00, 0.000, 0.000, 0.000, 11:04:41.102
43, 28.95, -2.56, 0.00, 0.00, 0.000, 0.000, 0.000, 11:04:41.116
44, 25.57, 0.58, 0.00, 0.00, 0.000, 0.000, 0.000, 11:04:41.116
45, 29.55, -6.54, 0.00, 0.00, 0.000, 0.000, 0.000, 11:04:41.131
46, 28.26, 0.83, 0.00, 0.00, 0.000, 0.000, 0.000, 11:04:41.131
47, 26.32, -1.79, 0.00, 0.00, 0.000, 0.000, 0.000, 11:04:41.132
48, 26.82, -4.97, 0.00, 0.00, 0.000, 0.000, 0.000, 11:04:41.132
49, 24.49, -1.81, 0.00, 0.00, 0.000, 0.000, 0.000, 11:04:41.146
50, 24.75, 3.53, 0.00, 0.00, 0.000, 0.000, 0.000, 11:04:41.147
51, 24.41, 0.33, 0.00, 0.00, 0.000, 0.000, 0.000, 11:04:41.160
52, 21.48, -5.66, 0.00, 0.00, 0.000, 0.000, 0.000, 11:04:41.161
53, 24.35, -3.84, 0.00, 0.00, 0.000, 0.000, 0.000, 11:04:41.169
54, 26.79, -3.47, 0.00, 0.00, 0.000, 0.000, 0.000, 11:04:41.169
55, 27.38, -5.67, 0.00, 0.00, 0.000, 0.000, 0.000, 11:04:41.182
56, 25.08, -1.92, 0.00, 0.00, 0.000, 0.000, 0.000, 11:04:41.182
57, 27.28, -8.04, 0.00, 0.00, 0.000, 0.000, 0.000, 11:04:41.191
58, 26.63, -5.63, 0.00, 0.00, 0.000, 0.000, 0.000, 11:04:41.192
59, 29.87, -6.52, 0.00, 0.00, 0.000, 0.000, 0.000, 11:04:41.192
60, 28.69, -7.59, 0.00, 0.00, 0.000, 0.000, 0.000, 11:04:41.192
61, 27.60, -9.11, 0.00, 0.00, 0.000, 0.000, 0.000, 11:04:41.207
62, 27.78, -4.91, 0.00, 0.00, 0.000, 0.000, 0.000, 11:04:41.208
63, 28.54, -8.44, 0.00, 0.00, 0.000, 0.000, 0.000, 11:04:41.223
64, 27.96, -7.71, 0.00, 0.00, 0.000, 0.000, 0.000, 11:04:41.223
65, 24.85, -4.90, 0.00, 0.00, 0.000, 0.000, 0.000, 11:04:41.224
66, 31.47, -5.26, 0.00, 0.00, 0.000, 0.000, 0.000, 11:04:41.224
67, 32.31, -8.26, 0.00, 0.00, 0.000, 0.000, 0.000, 11:04:41.235
68, 27.32, -8.54, 0.00, 0.00, 0.000, 0.000, 0.000, 11:04:41.236
69, 29.19, -9.80, 0.00, 0.00, 0.000, 0.000, 0.000, 11:04:41.251
70, 30.62, -7.65, 0.00, 0.00, 0.000, 0.000, 0.000, 11:04:41.251
71, 33.63, -7.32, 0.00, 0.00, 0.000, 0.000, 0.000, 11:04:41.252
72, 27.02, -8.65, 0.00, 0.00, 0.000, 0.000, 0.000, 11:04:41.252
73, 28.64, -7.53, 0.00, 0.00, 0.000, 0.000, 0.000, 11:04:41.266
74, 28.34, -8.58, 0.00, 0.00, 0.000, 0.000, 0.000, 11:04:41.266
75, 30.21, -5.91, 0.00, 0.00, 0.000, 0.000, 0.000, 11:04:41.283
76, 27.07, -8.29, 0.00, 0.00, 0.000, 0.000, 0.000, 11:04:41.283
77, 29.77, -7.63, 0.00, 0.00, 0.000, 0.000, 0.000, 11:04:41.283
78, 28.87, -5.62, 0.00, 0.00, 0.000, 0.000, 0.000, 11:04:41.283
79, 33.93, -3.85, 0.00, 0.00, 0.000, 0.000, 0.000, 11:04:41.296
80, 32.66, -4.31, 0.00, 0.00, 0.000, 0.000, 0.000, 11:04:41.296
81, 32.15, -6.64, 0.00, 0.00, 0.000, 0.000, 0.000, 11:04:41.310
82, 31.50, -3.62, 0.00, 0.00, 0.000, 0.000, 0.000, 11:04:41.311
83, 34.02, -2.53, 0.00, 0.00, 0.000, 0.000, 0.000, 11:04:41.312
84, 32.87, -4.53, 0.00, 0.00, 0.000, 0.000, 0.000, 11:04:41.312
85, 32.91, -5.41, 0.00, 0.00, 0.000, 0.000, 0.000, 11:04:41.325
86, 33.48, -0.00, 0.00, 0.00, 0.000, 0.000, 0.000, 11:04:41.326
87, 34.62, -4.78, 0.00, 0.00, 0.000, 0.000, 0.000, 11:04:41.341
88, 33.60, -3.74, 0.00, 0.00, 0.000, 0.000, 0.000, 11:04:41.341
89, 31.54, -2.28, 0.00, 0.00, 0.000, 0.000, 0.000, 11:04:41.343
90, 30.29, 1.01, 0.00, 0.00, 0.000, 0.000, 0.000, 11:04:41.343
91, 28.41, -0.66, 0.00, 0.00, 0.000, 0.000, 0.000, 11:04:41.355
92, 30.35, -0.85, 0.00, 0.00, 0.000, 0.000, 0.000, 11:04:41.355
93, 29.68, 2.59, 0.00, 0.00, 0.000, 0.000, 0.000, 11:04:41.370
94, 31.41, -0.10, 0.00, 0.00, 0.000, 0.000, 0.000, 11:04:41.370
95, 29.55, 8.55, 0.00, 0.00, 0.000, 0.000, 0.000, 11:04:41.371
96, 28.82, -1.29, 0.00, 0.00, 0.000, 0.000, 0.000, 11:04:41.371
97, 29.28, 1.37, 0.00, 0.00, 0.000, 0.000, 0.000, 11:04:41.385
98, 29.73, 13.49, 0.00, 0.00, 0.000, 0.000, 0.000, 11:04:41.385
99, 22.84, 7.05, 0.00, 0.00, 0.000, 0.000, 0.000, 11:04:41.416
100, 23.58, 5.20, 0.00, 0.00, 0.000, 0.000, 0.000, 11:04:41.416
101, 27.03, 8.87, 0.00, 0.00, 0.000, 0.000, 0.000, 11:04:41.416
102, 25.66, 10.18, 0.00, 0.00, 0.000, 0.000, 0.000, 11:04:41.417
103, 21.29, 8.97, 0.00, 0.00, 0.000, 0.000, 0.000, 11:04:41.417
104, 20.60, 3.62, 0.00, 0.00, 0.000, 0.000, 0.000, 11:04:41.417
105, 17.28, 4.06, 0.00, 0.00, 0.000, 0.000, 0.000, 11:04:41.418
106, 18.88, 5.85, 0.00, 0.00, 0.000, 0.000, 0.000, 11:04:41.418
107, 25.67, 5.86, 0.00, 0.00, 0.000, 0.000, 0.000, 11:04:41.431
108, 22.40, 0.13, 0.00, 0.00, 0.000, 0.000, 0.000, 11:04:41.431
109, 21.80, -0.81, 0.00, 0.00, 0.000, 0.000, 0.000, 11:04:41.446
110, 22.04, 3.48, 0.00, 0.00, 0.000, 0.000, 0.000, 11:04:41.446
111, 26.01, 0.47, 0.00, 0.00, 0.000, 0.000, 0.000, 11:04:41.460
112, 24.37, -3.14, 0.00, 0.00, 0.000, 0.000, 0.000, 11:04:41.461
113, 24.01, -1.46, 0.00, 0.00, 0.000, 0.000, 0.000, 11:04:41.462
114, 24.53, 0.49, 0.00, 0.00, 0.000, 0.000, 0.000, 11:04:41.462
115, 25.90, -2.08, 0.00, 0.00, 0.000, 0.000, 0.000, 11:04:41.476
116, 24.69, -0.98, 0.00, 0.00, 0.000, 0.000, 0.000, 11:04:41.476
117, 19.96, -1.20, 0.00, 0.00, 0.000, 0.000, 0.000, 11:04:41.490
118, 25.60, 0.02, 0.00, 0.00, 0.000, 0.000, 0.000, 11:04:41.491
119, 24.56, 0.64, 0.00, 0.00, 0.000, 0.000, 0.000, 11:04:41.491
120, 24.96, -1.85, 0.00, 0.00, 0.000, 0.000, 0.000, 11:04:41.491
121, 22.91, -2.72, 0.00, 0.00, 0.000, 0.000, 0.000, 11:04:41.520
122, 25.71, 2.96, 0.00, 0.00, 0.000, 0.000, 0.000, 11:04:41.521
123, 28.07, -0.19, 0.00, 0.00, 0.000, 0.000, 0.000, 11:04:41.522
124, 26.44, -1.13, 0.00, 0.00, 0.000, 0.000, 0.000, 11:04:41.522
125, 24.66, 0.27, 0.00, 0.00, 0.000, 0.000, 0.000, 11:04:41.522
126, 25.12, 7.54, 0.00, 0.00, 0.000, 0.000, 0.000, 11:04:41.522
127, 28.03, -2.34, 0.00, 0.00, 0.000, 0.000, 0.000, 11:04:41.536
128, 23.23, -1.94, 0.00, 0.00, 0.000, 0.000, 0.000, 11:04:41.536
129, 22.79, -3.69, 0.00, 0.00, 0.000, 0.000, 0.000, 11:04:41.551
130, 24.31, -1.02, 0.00, 0.00, 0.000, 0.000, 0.000, 11:04:41.551
131, 26.92, -0.58, 0.00, 0.00, 0.000, 0.000, 0.000, 11:04:41.552
132, 24.57, -5.38, 0.00, 0.00, 0.000, 0.000, 0.000, 11:04:41.552
133, 23.48, -6.44, 0.00, 0.00, 0.000, 0.000, 0.000, 11:04:41.566
134, 25.85, -4.18, 0.00, 0.00, 0.000, 0.000, 0.000, 11:04:41.566
135, 26.87, -4.60, 0.00, 0.00, 0.000, 0.000, 0.000, 11:04:41.582
136, 28.95, -5.40, 0.00, 0.00, 0.000, 0.000, 0.000, 11:04:41.582
137, 26.25, -0.77, 0.00, 0.00, 0.000, 0.000, 0.000, 11:04:41.590
138, 24.91, -1.21, 0.00, 0.00, 0.000, 0.000, 0.000, 11:04:41.590
139, 29.01, -5.11, 0.00, 0.00, 0.000, 0.000, 0.000, 11:04:41.599
140, 25.08, -5.01, 0.00, 0.00, 0.000, 0.000, 0.000, 11:04:41.599
141, 25.52, -5.26, 0.00, 0.00, 0.000, 0.000, 0.000, 11:04:41.616
142, 26.62, -6.78, 0.00, 0.00, 0.000, 0.000, 0.000, 11:04:41.617
143, 29.19, -5.21, 0.00, 0.00, 0.000, 0.000, 0.000, 11:04:41.617
144, 28.80, -4.25, 0.00, 0.00, 0.000, 0.000, 0.000, 11:04:41.617
145, 26.03, -6.62, 0.00, 0.00, 0.000, 0.000, 0.000, 11:04:41.625
146, 27.85, -5.75, 0.00, 0.00, 0.000, 0.000, 0.000, 11:04:41.625
147, 26.79, -6.30, 0.00, 0.00, 0.000, 0.000, 0.000, 11:04:41.640
148, 29.08, -8.92, 0.00, 0.00, 0.000, 0.000, 0.000, 11:04:41.641
149, 27.02, -2.09, 0.00, 0.00, 0.000, 0.000, 0.000, 11:04:41.641
150, 29.43, -2.79, 0.00, 0.00, 0.000, 0.000, 0.000, 11:04:41.641
151, 30.98, -6.38, 0.00, 0.00, 0.000, 0.000, 0.000, 11:04:41.655
152, 30.03, -7.48, 0.00, 0.00, 0.000, 0.000, 0.000, 11:04:41.655
153, 29.58, -4.11, 0.00, 0.00, 0.000, 0.000, 0.000, 11:04:41.670
154, 27.75, -1.50, 0.00, 0.00, 0.000, 0.000, 0.000, 11:04:41.670
155, 32.04, 0.60, 0.00, 0.00, 0.000, 0.000, 0.000, 11:04:41.671
156, 30.64, -5.81, 0.00, 0.00, 0.000, 0.000, 0.000, 11:04:41.671
157, 29.09, -4.45, 0.00, 0.00, 0.000, 0.000, 0.000, 11:04:41.685
158, 30.72, -1.42, 0.00, 0.00, 0.000, 0.000, 0.000, 11:04:41.685
159, 32.54, -3.32, 0.00, 0.00, 0.000, 0.000, 0.000, 11:04:41.700
160, 29.50, -4.76, 0.00, 0.00, 0.000, 0.000, 0.000, 11:04:41.700
161, 27.59, -0.93, 0.00, 0.00, 0.000, 0.000, 0.000, 11:04:41.701
162, 30.90, 2.93, 0.00, 0.00, 0.000, 0.000, 0.000, 11:04:41.701
163, 32.76, 2.83, 0.00, 0.00, 0.000, 0.000, 0.000, 11:04:41.746
164, 30.47, 1.88, 0.00, 0.00, 0.000, 0.000, 0.000, 11:04:41.746
165, 30.03, -2.17, 0.00, 0.00, 0.000, 0.000, 0.000, 11:04:41.746
166, 28.71, -0.83, 0.00, 0.00, 0.000, 0.000, 0.000, 11:04:41.746
167, 33.75, 4.49, 0.00, 0.00, 0.000, 0.000, 0.000, 11:04:41.746
168, 26.04, -1.06, 0.00, 0.00, 0.000, 0.000, 0.000, 11:04:41.746
169, 28.37, 2.55, 0.00, 0.00, 0.000, 0.000, 0.000, 11:04:41.746
170, 27.85, 11.81, 0.00, 0.00, 0.000, 0.000, 0.000, 11:04:41.747
171, 28.59, 4.97, 0.00, 0.00, 0.000, 0.000, 0.000, 11:04:41.747
172, 25.76, -0.06, 0.00, 0.00, 0.000, 0.000, 0.000, 11:04:41.747
173, 25.90, 2.14, 0.00, 0.00, 0.000, 0.000, 0.000, 11:04:41.761
174, 27.27, 7.80, 0.00, 0.00, 0.000, 0.000, 0.000, 11:04:41.761
175, 26.69, 0.58, 0.00, 0.00, 0.000, 0.000, 0.000, 11:04:41.776
176, 23.97, -1.40, 0.00, 0.00, 0.000, 0.000, 0.000, 11:04:41.776
177, 26.15, 0.67, 0.00, 0.00, 0.000, 0.000, 0.000, 11:04:41.791
178, 30.31, -3.53, 0.00, 0.00, 0.000, 0.000, 0.000, 11:04:41.791
179, 25.38, 6.25, 0.00, 0.00, 0.000, 0.000, 0.000, 11:04:41.791
180, 25.39, -0.69, 0.00, 0.00, 0.000, 0.000, 0.000, 11:04:41.791
181, 28.92, 2.58, 0.00, 0.00, 0.000, 0.000, 0.000, 11:04:41.806
182, 26.39, 2.46, 0.00, 0.00, 0.000, 0.000, 0.000, 11:04:41.806
183, 29.59, 2.95, 0.00, 0.00, 0.000, 0.000, 0.000, 11:04:41.821
184, 28.11, -0.72, 0.00, 0.00, 0.000, 0.000, 0.000, 11:04:41.821
185, 27.94, -0.46, 0.00, 0.00, 0.000, 0.000, 0.000, 11:04:41.821
186, 26.15, 1.48, 0.00, 0.00, 0.000, 0.000, 0.000, 11:04:41.822
187, 24.95, -1.67, 0.00, 0.00, 0.000, 0.000, 0.000, 11:04:41.836
188, 27.73, 0.86, 0.00, 0.00, 0.000, 0.000, 0.000, 11:04:41.836
189, 29.12, 0.86, 0.00, 0.00, 0.000, 0.000, 0.000, 11:04:41.850
190, 27.40, 2.63, 0.00, 0.00, 0.000, 0.000, 0.000, 11:04:41.851
191, 24.53, 3.57, 0.00, 0.00, 0.000, 0.000, 0.000, 11:04:41.851
192, 25.03, 1.81, 0.00, 0.00, 0.000, 0.000, 0.000, 11:04:41.851
193, 25.28, 4.20, 0.00, 0.00, 0.000, 0.000, 0.000, 11:04:41.865
194, 21.54, 10.13, 0.00, 0.00, 0.000, 0.000, 0.000, 11:04:41.866
195, 25.63, 1.46, 0.00, 0.00, 0.000, 0.000, 0.000, 11:04:41.880
196, 22.54, -4.42, 0.00, 0.00, 0.000, 0.000, 0.000, 11:04:41.880
197, 22.41, 0.31, 0.00, 0.00, 0.000, 0.000, 0.000, 11:04:41.880
198, 26.27, -0.73, 0.00, 0.00, 0.000, 0.000, 0.000, 11:04:41.880
199, 25.49, -1.69, 0.00, 0.00, 0.000, 0.000, 0.000, 11:04:41.895
200, 21.71, -3.89, 0.00, 0.00, 0.000, 0.000, 0.000, 11:04:41.896
0, 22.35, -2.96, 0.00, 0.00, 0.000, 0.000, 0.000, 11:04:41.896
1, 24.21, -0.62, 0.00, 0.00, 0.000, 0.000, 0.000, 11:04:41.910
2, 23.59, 1.41, 0.00, 0.00, 0.000, 0.000, 0.000, 11:04:41.910
3, 21.61, -0.24, 0.00, 0.00, 0.000, 0.000, 0.000, 11:04:41.926
4, 19.59, 0.88, 0.00, 0.00, 0.000, 0.000, 0.000, 11:04:41.926
5, 21.54, 1.47, 0.00, 0.00, 0.000, 0.000, 0.000, 11:04:41.933
6, 23.61, -5.90, 0.00, 0.00, 0.000, 0.000, 0.000, 11:04:41.933
7, 20.92, -4.54, 0.00, 0.00, 0.000, 0.000, 0.000, 11:04:41.942
8, 18.39, 0.74, 0.00, 0.00, 0.000, 0.000, 0.000, 11:04:41.942
9, 21.92, -1.56, 0.00, 0.00, 0.000, 0.000, 0.000, 11:04:41.955
10, 24.62, -3.32, 0.00, 0.00, 0.000, 0.000, 0.000, 11:04:41.956
11, 21.55, -1.07, 0.00, 0.00, 0.000, 0.000, 0.000, 11:04:41.970
12, 24.14, -2.42, 0.00, 0.00, 0.000, 0.000, 0.000, 11:04:41.970
13, 25.83, -3.18, 0.00, 0.00, 0.000, 0.000, 0.000, 11:04:41.971
14, 24.85, -0.26, 0.00, 0.00, 0.000, 0.000, 0.000, 11:04:41.971
15, 25.35, -4.64, 0.00, 0.00, 0.000, 0.000, 0.000, 11:04:41.985
16, 27.02, -4.26, 0.00, 0.00, 0.000, 0.000, 0.000, 11:04:41.985
17, 23.89, 1.80, 0.00, 0.00, 0.000, 0.000, 0.000, 11:04:41.986
18, 26.37, -0.81, 0.00, 0.00, 0.000, 0.000, 0.000, 11:04:41.986
19, 26.38, -3.82, 0.00, 0.00, 0.000, 0.000, 0.000, 11:04:42.000
20, 27.99, -2.25, 0.00, 0.00, 0.000, 0.000, 0.000, 11:04:42.000
21, 27.67, -2.02, 0.00, 0.00, 0.000, 0.000, 0.000, 11:04:42.015
22, 29.57, -5.79, 0.00, 0.00, 0.000, 0.000, 0.000, 11:04:42.015
23, 29.43, -3.90, 0.00, 0.00, 0.000, 0.000, 0.000, 11:04:42.016
24, 33.06, -8.73, 0.00, 0.00, 0.000, 0.000, 0.000, 11:04:42.016
25, 32.77, -7.09, 0.00, 0.00, 0.000, 0.000, 0.000, 11:04:42.030
26, 34.01, -1.71, 0.00, 0.00, 0.000, 0.000, 0.000, 11:04:42.030
27, 28.26, -2.66, 0.00, 0.00, 0.000, 0.000, 0.000, 11:04:42.045
28, 29.09, -0.78, 0.00, 0.00, 0.000, 0.000, 0.000, 11:04:42.045
29, 34.64, 1.31, 0.00, 0.00, 0.000, 0.000, 0.000, 11:04:42.045
