%OpenBCI Raw EEG Data
%
%Sample Rate = 200.0 Hz
%First Column = SampleIndex
%Last Column = Timestamp 
%Other Columns = EEG data in microvolts followed by Accel Data (in G) interleaved with Aux Data
0, -28.89, 46.51, 0.00, 0.00, 0.000, 0.000, 0.000, 14:44:30.408
1, -26.17, 50.20, 0.00, 0.00, 0.000, 0.000, 0.000, 14:44:30.421
2, -28.82, 47.82, 0.00, 0.00, 0.000, 0.000, 0.000, 14:44:30.422
3, -28.71, 39.96, 0.00, 0.00, 0.000, 0.000, 0.000, 14:44:30.434
4, -29.91, 40.01, 0.00, 0.00, 0.000, 0.000, 0.000, 14:44:30.434
5, -27.81, 43.34, 0.00, 0.00, 0.000, 0.000, 0.000, 14:44:30.434
6, -27.39, 48.75, 0.00, 0.00, 0.000, 0.000, 0.000, 14:44:30.435
7, -29.58, 47.03, 0.00, 0.00, 0.000, 0.000, 0.000, 14:44:30.449
8, -30.93, 45.20, 0.00, 0.00, 0.000, 0.000, 0.000, 14:44:30.449
9, -28.13, 47.90, 0.00, 0.00, 0.000, 0.000, 0.000, 14:44:30.463
10, -26.19, 46.79, 0.00, 0.00, 0.000, 0.000, 0.000, 14:44:30.464
11, -28.41, 43.73, 0.00, 0.00, 0.000, 0.000, 0.000, 14:44:30.464
12, -29.27, 40.13, 0.00, 0.00, 0.000, 0.000, 0.000, 14:44:30.464
13, -26.00, 45.38, 0.00, 0.00, 0.000, 0.000, 0.000, 14:44:30.478
14, -26.76, 45.39, 0.00, 0.00, 0.000, 0.000, 0.000, 14:44:30.478
15, -23.90, 48.29, 0.00, 0.00, 0.000, 0.000, 0.000, 14:44:30.493
16, -28.76, 49.02, 0.00, 0.00, 0.000, 0.000, 0.000, 14:44:30.494
17, -27.66, 53.31, 0.00, 0.00, 0.000, 0.000, 0.000, 14:44:30.494
18, -25.00, 54.04, 0.00, 0.00, 0.000, 0.000, 0.000, 14:44:30.495
19, -30.45, 43.61, 0.00, 0.00, 0.000, 0.000, 0.000, 14:44:30.508
20, -29.48, 40.36, 0.00, 0.00, 0.000, 0.000, 0.000, 14:44:30.509
21, -22.38, 50.75, 0.00, 0.00, 0.000, 0.000, 0.000, 14:44:30.523
22, -26.87, 50.52, 0.00, 0.00, 0.000, 0.000, 0.000, 14:44:30.524
23, -29.53, 45.89, 0.00, 0.00, 0.000, 0.000, 0.000, 14:44:30.524
24, -26.97, 41.43, 0.00, 0.00, 0.000, 0.000, 0.000, 14:44:30.525
25, -27.99, 49.72, 0.00, 0.00, 0.000, 0.000, 0.000, 14:44:30.539
26, -28.51, 47.52, 0.00, 0.00, 0.000, 0.000, 0.000, 14:44:30.539
27, -29.42, 43.11, 0.00, 0.00, 0.000, 0.000, 0.000, 14:44:30.553
28, -31.50, 43.90, 0.00, 0.00, 0.000, 0.000, 0.000, 14:44:30.554
29, -25.02, 50.16, 0.00, 0.00, 0.000, 0.000, 0.000, 14:44:30.554
30, -26.31, 53.50, 0.00, 0.00, 0.000, 0.000, 0.000, 14:44:30.554
31, -29.97, 42.56, 0.00, 0.00, 0.000, 0.000, 0.000, 14:44:30.569
32, -28.00, 45.29, 0.00, 0.00, 0.000, 0.000, 0.000, 14:44:30.569
33, -26.62, 49.72, 0.00, 0.00, 0.000, 0.000, 0.000, 14:44:30.583
34, -28.28, 48.49, 0.00, 0.00, 0.000, 0.000, 0.000, 14:44:30.584
35, -27.83, 46.55, 0.00, 0.00, 0.000, 0.000, 0.000, 14:44:30.584
36, -26.55, 48.56, 0.00, 0.00, 0.000, 0.000, 0.000, 14:44:30.584
37, -24.75, 46.11, 0.00, 0.00, 0.000, 0.000, 0.000, 14:44:30.599
38, -25.75, 48.70, 0.00, 0.00, 0.000, 0.000, 0.000, 14:44:30.599
39, -30.13, 47.06, 0.00, 0.00, 0.000, 0.000, 0.000, 14:44:30.613
40, -27.21, 41.30, 0.00, 0.00, 0.000, 0.000, 0.000, 14:44:30.613
41, -23.92, 47.28, 0.00, 0.00, 0.000, 0.000, 0.000, 14:44:30.621
42, -23.51, 49.10, 0.00, 0.00, 0.000, 0.000, 0.000, 14:44:30.622
43, -26.79, 45.07, 0.00, 0.00, 0.000, 0.000, 0.000, 14:44:30.629
44, -26.72, 46.56, 0.00, 0.00, 0.000, 0.000, 0.000, 14:44:30.630
45, -25.50, 52.89, 0.00, 0.00, 0.000, 0.000, 0.000, 14:44:30.644
46, -22.30, 53.67, 0.00, 0.00, 0.000, 0.000, 0.000, 14:44:30.644
47, -23.88, 48.23, 0.00, 0.00, 0.000, 0.000, 0.000, 14:44:30.644
48, -23.02, 50.32, 0.00, 0.00, 0.000, 0.000, 0.000, 14:44:30.645
49, -24.40, 53.00, 0.00, 0.00, 0.000, 0.000, 0.000, 14:44:30.658
50, -20.45, 45.09, 0.00, 0.00, 0.000, 0.000, 0.000, 14:44:30.659
51, -23.18, 42.77, 0.00, 0.00, 0.000, 0.000, 0.000, 14:44:30.674
52, -24.39, 40.66, 0.00, 0.00, 0.000, 0.000, 0.000, 14:44:30.674
53, -21.17, 42.91, 0.00, 0.00, 0.000, 0.000, 0.000, 14:44:30.675
54, -21.81, 46.80, 0.00, 0.00, 0.000, 0.000, 0.000, 14:44:30.675
55, -24.30, 41.77, 0.00, 0.00, 0.000, 0.000, 0.000, 14:44:30.688
56, -26.35, 46.95, 0.00, 0.00, 0.000, 0.000, 0.000, 14:44:30.689
57, -22.45, 50.33, 0.00, 0.00, 0.000, 0.000, 0.000, 14:44:30.704
58, -22.56, 50.82, 0.00, 0.00, 0.000, 0.000, 0.000, 14:44:30.704
59, -23.88, 45.96, 0.00, 0.00, 0.000, 0.000, 0.000, 14:44:30.704
60, -23.01, 50.74, 0.00, 0.00, 0.000, 0.000, 0.000, 14:44:30.704
61, -23.28, 51.49, 0.00, 0.00, 0.000, 0.000, 0.000, 14:44:30.718
62, -21.30, 49.02, 0.00, 0.00, 0.000, 0.000, 0.000, 14:44:30.718
63, -23.52, 46.50, 0.00, 0.00, 0.000, 0.000, 0.000, 14:44:30.733
64, -25.74, 50.73, 0.00, 0.00, 0.000, 0.000, 0.000, 14:44:30.734
65, -24.03, 47.90, 0.00, 0.00, 0.000, 0.000, 0.000, 14:44:30.734
66, -24.53, 48.86, 0.00, 0.00, 0.000, 0.000, 0.000, 14:44:30.734
67, -25.36, 42.84, 0.00, 0.00, 0.000, 0.000, 0.000, 14:44:30.748
68, -21.92, 41.61, 0.00, 0.00, 0.000, 0.000, 0.000, 14:44:30.748
69, -17.01, 38.73, 0.00, 0.00, 0.000, 0.000, 0.000, 14:44:30.764
70, -18.00, 38.70, 0.00, 0.00, 0.000, 0.000, 0.000, 14:44:30.764
71, -19.81, 38.27, 0.00, 0.00, 0.000, 0.000, 0.000, 14:44:30.765
72, -19.35, 45.12, 0.00, 0.00, 0.000, 0.000, 0.000, 14:44:30.765
73, -18.21, 43.00, 0.00, 0.00, 0.000, 0.000, 0.000, 14:44:30.778
74, -18.37, 43.37, 0.00, 0.00, 0.000, 0.000, 0.000, 14:44:30.779
75, -22.80, 40.84, 0.00, 0.00, 0.000, 0.000, 0.000, 14:44:30.793
76, -22.08, 44.27, 0.00, 0.00, 0.000, 0.000, 0.000, 14:44:30.793
77, -18.72, 46.04, 0.00, 0.00, 0.000, 0.000, 0.000, 14:44:30.794
78, -16.61, 49.87, 0.00, 0.00, 0.000, 0.000, 0.000, 14:44:30.794
79, -22.37, 47.60, 0.00, 0.00, 0.000, 0.000, 0.000, 14:44:30.809
80, -23.86, 48.74, 0.00, 0.00, 0.000, 0.000, 0.000, 14:44:30.809
81, -19.19, 53.40, 0.00, 0.00, 0.000, 0.000, 0.000, 14:44:30.823
82, -21.03, 49.79, 0.00, 0.00, 0.000, 0.000, 0.000, 14:44:30.823
83, -23.04, 42.12, 0.00, 0.00, 0.000, 0.000, 0.000, 14:44:30.824
84, -21.83, 41.84, 0.00, 0.00, 0.000, 0.000, 0.000, 14:44:30.824
85, -22.86, 45.20, 0.00, 0.00, 0.000, 0.000, 0.000, 14:44:30.838
86, -20.26, 41.22, 0.00, 0.00, 0.000, 0.000, 0.000, 14:44:30.838
87, -21.18, 44.21, 0.00, 0.00, 0.000, 0.000, 0.000, 14:44:30.853
88, -22.73, 44.51, 0.00, 0.00, 0.000, 0.000, 0.000, 14:44:30.853
89, -16.84, 43.60, 0.00, 0.00, 0.000, 0.000, 0.000, 14:44:30.854
90, -15.49, 41.84, 0.00, 0.00, 0.000, 0.000, 0.000, 14:44:30.854
91, -20.55, 41.57, 0.00, 0.00, 0.000, 0.000, 0.000, 14:44:30.869
92, -20.02, 41.72, 0.00, 0.00, 0.000, 0.000, 0.000, 14:44:30.869
93, -18.81, 44.12, 0.00, 0.00, 0.000, 0.000, 0.000, 14:44:30.882
94, -18.76, 45.50, 0.00, 0.00, 0.000, 0.000, 0.000, 14:44:30.883
95, -21.00, 39.64, 0.00, 0.00, 0.000, 0.000, 0.000, 14:44:30.883
96, -21.18, 39.18, 0.00, 0.00, 0.000, 0.000, 0.000, 14:44:30.883
97, -17.17, 41.51, 0.00, 0.00, 0.000, 0.000, 0.000, 14:44:30.906
98, -15.80, 40.44, 0.00, 0.00, 0.000, 0.000, 0.000, 14:44:30.907
99, -21.63, 36.24, 0.00, 0.00, 0.000, 0.000, 0.000, 14:44:30.914
100, -18.10, 40.61, 0.00, 0.00, 0.000, 0.000, 0.000, 14:44:30.914
101, -15.83, 43.65, 0.00, 0.00, 0.000, 0.000, 0.000, 14:44:30.914
102, -17.53, 45.94, 0.00, 0.00, 0.000, 0.000, 0.000, 14:44:30.914
103, -18.07, 44.75, 0.00, 0.00, 0.000, 0.000, 0.000, 14:44:30.929
104, -19.00, 41.84, 0.00, 0.00, 0.000, 0.000, 0.000, 14:44:30.929
105, -17.38, 46.48, 0.00, 0.00, 0.000, 0.000, 0.000, 14:44:30.944
106, -18.78, 50.17, 0.00, 0.00, 0.000, 0.000, 0.000, 14:44:30.944
107, -21.44, 43.96, 0.00, 0.00, 0.000, 0.000, 0.000, 14:44:30.944
108, -18.58, 39.93, 0.00, 0.00, 0.000, 0.000, 0.000, 14:44:30.944
109, -17.00, 40.42, 0.00, 0.00, 0.000, 0.000, 0.000, 14:44:30.958
110, -14.91, 40.15, 0.00, 0.00, 0.000, 0.000, 0.000, 14:44:30.959
111, -20.16, 37.61, 0.00, 0.00, 0.000, 0.000, 0.000, 14:44:30.973
112, -21.10, 40.97, 0.00, 0.00, 0.000, 0.000, 0.000, 14:44:30.974
113, -16.88, 43.88, 0.00, 0.00, 0.000, 0.000, 0.000, 14:44:30.974
114, -17.65, 44.84, 0.00, 0.00, 0.000, 0.000, 0.000, 14:44:30.974
115, -22.11, 41.81, 0.00, 0.00, 0.000, 0.000, 0.000, 14:44:30.988
116, -20.84, 41.85, 0.00, 0.00, 0.000, 0.000, 0.000, 14:44:30.989
117, -16.22, 44.54, 0.00, 0.00, 0.000, 0.000, 0.000, 14:44:31.004
118, -15.84, 45.34, 0.00, 0.00, 0.000, 0.000, 0.000, 14:44:31.004
119, -17.48, 41.53, 0.00, 0.00, 0.000, 0.000, 0.000, 14:44:31.005
120, -19.78, 43.16, 0.00, 0.00, 0.000, 0.000, 0.000, 14:44:31.006
121, -18.67, 48.92, 0.00, 0.00, 0.000, 0.000, 0.000, 14:44:31.019
122, -18.82, 45.07, 0.00, 0.00, 0.000, 0.000, 0.000, 14:44:31.019
123, -18.57, 45.76, 0.00, 0.00, 0.000, 0.000, 0.000, 14:44:31.033
124, -21.09, 43.03, 0.00, 0.00, 0.000, 0.000, 0.000, 14:44:31.034
125, -16.92, 44.93, 0.00, 0.00, 0.000, 0.000, 0.000, 14:44:31.035
126, -18.27, 40.01, 0.00, 0.00, 0.000, 0.000, 0.000, 14:44:31.035
127, -20.78, 40.85, 0.00, 0.00, 0.000, 0.000, 0.000, 14:44:31.048
128, -17.30, 46.14, 0.00, 0.00, 0.000, 0.000, 0.000, 14:44:31.048
129, -18.90, 48.95, 0.00, 0.00, 0.000, 0.000, 0.000, 14:44:31.063
130, -17.41, 49.68, 0.00, 0.00, 0.000, 0.000, 0.000, 14:44:31.065
131, -22.40, 47.37, 0.00, 0.00, 0.000, 0.000, 0.000, 14:44:31.067
132, -23.83, 53.49, 0.00, 0.00, 0.000, 0.000, 0.000, 14:44:31.067
133, -17.71, 51.62, 0.00, 0.00, 0.000, 0.000, 0.000, 14:44:31.078
134, -15.33, 49.41, 0.00, 0.00, 0.000, 0.000, 0.000, 14:44:31.078
135, -21.58, 46.29, 0.00, 0.00, 0.000, 0.000, 0.000, 14:44:31.093
136, -17.80, 45.42, 0.00, 0.00, 0.000, 0.000, 0.000, 14:44:31.093
137, -15.79, 45.74, 0.00, 0.00, 0.000, 0.000, 0.000, 14:44:31.093
138, -19.76, 46.16, 0.00, 0.00, 0.000, 0.000, 0.000, 14:44:31.093
139, -23.31, 44.17, 0.00, 0.00, 0.000, 0.000, 0.000, 14:44:31.109
140, -21.91, 45.71, 0.00, 0.00, 0.000, 0.000, 0.000, 14:44:31.109
141, -18.00, 46.65, 0.00, 0.00, 0.000, 0.000, 0.000, 14:44:31.123
142, -17.94, 44.74, 0.00, 0.00, 0.000, 0.000, 0.000, 14:44:31.123
143, -18.44, 41.80, 0.00, 0.00, 0.000, 0.000, 0.000, 14:44:31.124
144, -19.13, 38.81, 0.00, 0.00, 0.000, 0.000, 0.000, 14:44:31.124
145, -15.80, 41.34, 0.00, 0.00, 0.000, 0.000, 0.000, 14:44:31.138
146, -16.30, 38.62, 0.00, 0.00, 0.000, 0.000, 0.000, 14:44:31.138
147, -20.75, 39.09, 0.00, 0.00, 0.000, 0.000, 0.000, 14:44:31.153
148, -21.59, 42.15, 0.00, 0.00, 0.000, 0.000, 0.000, 14:44:31.153
149, -16.41, 44.77, 0.00, 0.00, 0.000, 0.000, 0.000, 14:44:31.153
150, -15.42, 50.38, 0.00, 0.00, 0.000, 0.000, 0.000, 14:44:31.154
151, -19.11, 43.26, 0.00, 0.00, 0.000, 0.000, 0.000, 14:44:31.168
152, -16.79, 42.78, 0.00, 0.00, 0.000, 0.000, 0.000, 14:44:31.168
153, -16.35, 45.19, 0.00, 0.00, 0.000, 0.000, 0.000, 14:44:31.184
154, -15.57, 40.90, 0.00, 0.00, 0.000, 0.000, 0.000, 14:44:31.185
155, -17.14, 39.54, 0.00, 0.00, 0.000, 0.000, 0.000, 14:44:31.185
156, -19.47, 44.26, 0.00, 0.00, 0.000, 0.000, 0.000, 14:44:31.185
157, -16.37, 43.33, 0.00, 0.00, 0.000, 0.000, 0.000, 14:44:31.199
158, -19.96, 43.63, 0.00, 0.00, 0.000, 0.000, 0.000, 14:44:31.199
159, -20.73, 46.63, 0.00, 0.00, 0.000, 0.000, 0.000, 14:44:31.214
160, -23.37, 46.21, 0.00, 0.00, 0.000, 0.000, 0.000, 14:44:31.214
161, -18.54, 49.32, 0.00, 0.00, 0.000, 0.000, 0.000, 14:44:31.215
162, -19.07, 46.32, 0.00, 0.00, 0.000, 0.000, 0.000, 14:44:31.215
163, -21.48, 40.98, 0.00, 0.00, 0.000, 0.000, 0.000, 14:44:31.230
164, -18.88, 41.59, 0.00, 0.00, 0.000, 0.000, 0.000, 14:44:31.231
165, -19.19, 42.78, 0.00, 0.00, 0.000, 0.000, 0.000, 14:44:31.243
166, -17.02, 46.43, 0.00, 0.00, 0.000, 0.000, 0.000, 14:44:31.243
167, -21.14, 45.91, 0.00, 0.00, 0.000, 0.000, 0.000, 14:44:31.243
168, -22.53, 48.39, 0.00, 0.00, 0.000, 0.000, 0.000, 14:44:31.244
169, -20.08, 53.36, 0.00, 0.00, 0.000, 0.000, 0.000, 14:44:31.265
170, -20.45, 46.08, 0.00, 0.00, 0.000, 0.000, 0.000, 14:44:31.265
171, -18.99, 40.82, 0.00, 0.00, 0.000, 0.000, 0.000, 14:44:31.273
172, -19.81, 41.40, 0.00, 0.00, 0.000, 0.000, 0.000, 14:44:31.273
173, -20.45, 44.44, 0.00, 0.00, 0.000, 0.000, 0.000, 14:44:31.274
174, -21.04, 45.35, 0.00, 0.00, 0.000, 0.000, 0.000, 14:44:31.274
175, -23.92, 43.76, 0.00, 0.00, 0.000, 0.000, 0.000, 14:44:31.288
176, -21.02, 39.78, 0.00, 0.00, 0.000, 0.000, 0.000, 14:44:31.288
177, -19.49, 50.41, 0.00, 0.00, 0.000, 0.000, 0.000, 14:44:31.303
178, -22.96, 51.65, 0.00, 0.00, 0.000, 0.000, 0.000, 14:44:31.303
179, -25.72, 47.18, 0.00, 0.00, 0.000, 0.000, 0.000, 14:44:31.304
180, -24.16, 43.73, 0.00, 0.00, 0.000, 0.000, 0.000, 14:44:31.304
181, -23.23, 51.33, 0.00, 0.00, 0.000, 0.000, 0.000, 14:44:31.318
182, -24.62, 48.93, 0.00, 0.00, 0.000, 0.000, 0.000, 14:44:31.318
183, -25.23, 40.51, 0.00, 0.00, 0.000, 0.000, 0.000, 14:44:31.333
184, -24.70, 42.75, 0.00, 0.00, 0.000, 0.000, 0.000, 14:44:31.334
185, -22.24, 43.20, 0.00, 0.00, 0.000, 0.000, 0.000, 14:44:31.334
186, -21.36, 45.52, 0.00, 0.00, 0.000, 0.000, 0.000, 14:44:31.334
187, -24.13, 43.80, 0.00, 0.00, 0.000, 0.000, 0.000, 14:44:31.348
188, -22.14, 41.25, 0.00, 0.00, 0.000, 0.000, 0.000, 14:44:31.349
189, -23.18, 46.57, 0.00, 0.00, 0.000, 0.000, 0.000, 14:44:31.363
190, -21.39, 41.63, 0.00, 0.00, 0.000, 0.000, 0.000, 14:44:31.364
191, -24.31, 42.63, 0.00, 0.00, 0.000, 0.000, 0.000, 14:44:31.364
192, -22.78, 46.60, 0.00, 0.00, 0.000, 0.000, 0.000, 14:44:31.364
193, -23.84, 52.89, 0.00, 0.00, 0.000, 0.000, 0.000, 14:44:31.378
194, -23.61, 46.72, 0.00, 0.00, 0.000, 0.000, 0.000, 14:44:31.379
195, -24.86, 41.22, 0.00, 0.00, 0.000, 0.000, 0.000, 14:44:31.393
196, -25.08, 41.28, 0.00, 0.00, 0.000, 0.000, 0.000, 14:44:31.393
197, -23.86, 48.29, 0.00, 0.00, 0.000, 0.000, 0.000, 14:44:31.393
198, -23.83, 49.13, 0.00, 0.00, 0.000, 0.000, 0.000, 14:44:31.394
199, -21.35, 40.29, 0.00, 0.00, 0.000, 0.000, 0.000, 14:44:31.409
200, -22.25, 40.70, 0.00, 0.00, 0.000, 0.000, 0.000, 14:44:31.409
0, -21.87, 44.92, 0.00, 0.00, 0.000, 0.000, 0.000, 14:44:31.409
1, -24.54, 48.65, 0.00, 0.00, 0.000, 0.000, 0.000, 14:44:31.424
2, -27.70, 47.30, 0.00, 0.00, 0.000, 0.000, 0.000, 14:44:31.427
3, -29.00, 43.91, 0.00, 0.00, 0.000, 0.000, 0.000, 14:44:31.438
4, -22.97, 46.18, 0.00, 0.00, 0.000, 0.000, 0.000, 14:44:31.438
5, -21.50, 44.35, 0.00, 0.00, 0.000, 0.000, 0.000, 14:44:31.439
6, -23.66, 42.99, 0.00, 0.00, 0.000, 0.000, 0.000, 14:44:31.439
7, -25.84, 45.54, 0.00, 0.00, 0.000, 0.000, 0.000, 14:44:31.453
8, -23.23, 45.73, 0.00, 0.00, 0.000, 0.000, 0.000, 14:44:31.453
9, -24.67, 48.26, 0.00, 0.00, 0.000, 0.000, 0.000, 14:44:31.468
10, -29.10, 49.18, 0.00, 0.00, 0.000, 0.000, 0.000, 14:44:31.468
11, -25.82, 43.39, 0.00, 0.00, 0.000, 0.000, 0.000, 14:44:31.469
12, -20.97, 41.22, 0.00, 0.00, 0.000, 0.000, 0.000, 14:44:31.469
13, -21.70, 41.86, 0.00, 0.00, 0.000, 0.000, 0.000, 14:44:31.483
14, -22.48, 37.62, 0.00, 0.00, 0.000, 0.000, 0.000, 14:44:31.484
15, -20.10, 43.44, 0.00, 0.00, 0.000, 0.000, 0.000, 14:44:31.498
16, -23.25, 50.26, 0.00, 0.00, 0.000, 0.000, 0.000, 14:44:31.498
17, -22.66, 48.27, 0.00, 0.00, 0.000, 0.000, 0.000, 14:44:31.498
18, -24.90, 45.48, 0.00, 0.00, 0.000, 0.000, 0.000, 14:44:31.499
19, -23.88, 44.07, 0.00, 0.00, 0.000, 0.000, 0.000, 14:44:31.514
20, -22.94, 41.18, 0.00, 0.00, 0.000, 0.000, 0.000, 14:44:31.514
21, -25.24, 47.98, 0.00, 0.00, 0.000, 0.000, 0.000, 14:44:31.528
22, -28.39, 48.14, 0.00, 0.00, 0.000, 0.000, 0.000, 14:44:31.529
23, -26.09, 44.28, 0.00, 0.00, 0.000, 0.000, 0.000, 14:44:31.529
24, -23.73, 45.17, 0.00, 0.00, 0.000, 0.000, 0.000, 14:44:31.529
25, -21.73, 46.20, 0.00, 0.00, 0.000, 0.000, 0.000, 14:44:31.543
26, -28.06, 39.63, 0.00, 0.00, 0.000, 0.000, 0.000, 14:44:31.543
27, -22.89, 42.61, 0.00, 0.00, 0.000, 0.000, 0.000, 14:44:31.558
28, -23.63, 45.78, 0.00, 0.00, 0.000, 0.000, 0.000, 14:44:31.558
29, -22.77, 44.70, 0.00, 0.00, 0.000, 0.000, 0.000, 14:44:31.559
30, -26.56, 39.92, 0.00, 0.00, 0.000, 0.000, 0.000, 14:44:31.559
31, -24.92, 38.15, 0.00, 0.00, 0.000, 0.000, 0.000, 14:44:31.573
32, -24.46, 42.76, 0.00, 0.00, 0.000, 0.000, 0.000, 14:44:31.573
33, -23.48, 45.48, 0.00, 0.00, 0.000, 0.000, 0.000, 14:44:31.588
34, -29.09, 40.41, 0.00, 0.00, 0.000, 0.000, 0.000, 14:44:31.589
35, -25.99, 40.77, 0.00, 0.00, 0.000, 0.000, 0.000, 14:44:31.589
36, -24.55, 43.82, 0.00, 0.00, 0.000, 0.000, 0.000, 14:44:31.589
37, -23.67, 43.53, 0.00, 0.00, 0.000, 0.000, 0.000, 14:44:31.603
38, -26.89, 37.80, 0.00, 0.00, 0.000, 0.000, 0.000, 14:44:31.604
39, -25.32, 45.59, 0.00, 0.00, 0.000, 0.000, 0.000, 14:44:31.618
40, -24.27, 49.47, 0.00, 0.00, 0.000, 0.000, 0.000, 14:44:31.618
41, -25.83, 42.30, 0.00, 0.00, 0.000, 0.000, 0.000, 14:44:31.619
42, -26.21, 42.83, 0.00, 0.00, 0.000, 0.000, 0.000, 14:44:31.619
43, -25.03, 45.12, 0.00, 0.00, 0.000, 0.000, 0.000, 14:44:31.633
44, -22.59, 46.04, 0.00, 0.00, 0.000, 0.000, 0.000, 14:44:31.634
45, -26.02, 47.94, 0.00, 0.00, 0.000, 0.000, 0.000, 14:44:31.648
46, -24.78, 47.62, 0.00, 0.00, 0.000, 0.000, 0.000, 14:44:31.649
47, -27.31, 42.52, 0.00, 0.00, 0.000, 0.000, 0.000, 14:44:31.649
48, -21.66, 46.39, 0.00, 0.00, 0.000, 0.000, 0.000, 14:44:31.649
49, -26.63, 46.00, 0.00, 0.00, 0.000, 0.000, 0.000, 14:44:31.664
50, -25.84, 39.23, 0.00, 0.00, 0.000, 0.000, 0.000, 14:44:31.664
51, -24.34, 47.80, 0.00, 0.00, 0.000, 0.000, 0.000, 14:44:31.679
52, -23.67, 55.52, 0.00, 0.00, 0.000, 0.000, 0.000, 14:44:31.679
53, -27.55, 48.11, 0.00, 0.00, 0.000, 0.000, 0.000, 14:44:31.685
54, -26.59, 43.64, 0.00, 0.00, 0.000, 0.000, 0.000, 14:44:31.686
55, -27.62, 41.57, 0.00, 0.00, 0.000, 0.000, 0.000, 14:44:31.695
56, -24.06, 41.42, 0.00, 0.00, 0.000, 0.000, 0.000, 14:44:31.696
57, -28.60, 45.25, 0.00, 0.00, 0.000, 0.000, 0.000, 14:44:31.708
58, -27.54, 44.32, 0.00, 0.00, 0.000, 0.000, 0.000, 14:44:31.708
59, -30.61, 41.21, 0.00, 0.00, 0.000, 0.000, 0.000, 14:44:31.712
60, -27.67, 42.71, 0.00, 0.00, 0.000, 0.000, 0.000, 14:44:31.712
61, -29.93, 47.25, 0.00, 0.00, 0.000, 0.000, 0.000, 14:44:31.723
62, -29.52, 44.62, 0.00, 0.00, 0.000, 0.000, 0.000, 14:44:31.723
63, -26.70, 40.10, 0.00, 0.00, 0.000, 0.000, 0.000, 14:44:31.738
64, -22.85, 45.98, 0.00, 0.00, 0.000, 0.000, 0.000, 14:44:31.738
65, -27.48, 46.85, 0.00, 0.00, 0.000, 0.000, 0.000, 14:44:31.738
66, -30.93, 40.94, 0.00, 0.00, 0.000, 0.000, 0.000, 14:44:31.739
67, -31.02, 37.61, 0.00, 0.00, 0.000, 0.000, 0.000, 14:44:31.754
68, -25.91, 47.56, 0.00, 0.00, 0.000, 0.000, 0.000, 14:44:31.754
69, -28.74, 46.77, 0.00, 0.00, 0.000, 0.000, 0.000, 14:44:31.768
70, -28.68, 43.37, 0.00, 0.00, 0.000, 0.000, 0.000, 14:44:31.768
71, -31.22, 39.38, 0.00, 0.00, 0.000, 0.000, 0.000, 14:44:31.768
72, -27.71, 46.38, 0.00, 0.00, 0.000, 0.000, 0.000, 14:44:31.768
73, -25.97, 47.05, 0.00, 0.00, 0.000, 0.000, 0.000, 14:44:31.782
74, -29.15, 42.55, 0.00, 0.00, 0.000, 0.000, 0.000, 14:44:31.783
75, -27.36, 40.81, 0.00, 0.00, 0.000, 0.000, 0.000, 14:44:31.798
76, -26.50, 48.99, 0.00, 0.00, 0.000, 0.000, 0.000, 14:44:31.798
77, -27.77, 49.48, 0.00, 0.00, 0.000, 0.000, 0.000, 14:44:31.799
78, -29.11, 42.09, 0.00, 0.00, 0.000, 0.000, 0.000, 14:44:31.799
79, -26.24, 41.36, 0.00, 0.00, 0.000, 0.000, 0.000, 14:44:31.813
80, -26.02, 46.76, 0.00, 0.00, 0.000, 0.000, 0.000, 14:44:31.813
81, -27.63, 51.98, 0.00, 0.00, 0.000, 0.000, 0.000, 14:44:31.829
82, -29.19, 46.06, 0.00, 0.00, 0.000, 0.000, 0.000, 14:44:31.829
83, -29.88, 44.39, 0.00, 0.00, 0.000, 0.000, 0.000, 14:44:31.829
84, -27.37, 52.51, 0.00, 0.00, 0.000, 0.000, 0.000, 14:44:31.829
85, -27.66, 47.92, 0.00, 0.00, 0.000, 0.000, 0.000, 14:44:31.844
86, -26.66, 41.16, 0.00, 0.00, 0.000, 0.000, 0.000, 14:44:31.844
87, -26.21, 42.38, 0.00, 0.00, 0.000, 0.000, 0.000, 14:44:31.858
88, -27.72, 45.84, 0.00, 0.00, 0.000, 0.000, 0.000, 14:44:31.859
89, -26.84, 46.49, 0.00, 0.00, 0.000, 0.000, 0.000, 14:44:31.860
90, -27.76, 38.89, 0.00, 0.00, 0.000, 0.000, 0.000, 14:44:31.860
91, -28.49, 40.39, 0.00, 0.00, 0.000, 0.000, 0.000, 14:44:31.874
92, -24.78, 42.97, 0.00, 0.00, 0.000, 0.000, 0.000, 14:44:31.874
93, -27.41, 46.44, 0.00, 0.00, 0.000, 0.000, 0.000, 14:44:31.888
94, -29.19, 42.10, 0.00, 0.00, 0.000, 0.000, 0.000, 14:44:31.888
95, -25.35, 44.75, 0.00, 0.00, 0.000, 0.000, 0.000, 14:44:31.889
96, -24.58, 49.64, 0.00, 0.00, 0.000, 0.000, 0.000, 14:44:31.889
97, -24.36, 46.91, 0.00, 0.00, 0.000, 0.000, 0.000, 14:44:31.903
98, -27.28, 41.28, 0.00, 0.00, 0.000, 0.000, 0.000, 14:44:31.903
99, -27.13, 46.34, 0.00, 0.00, 0.000, 0.000, 0.000, 14:44:31.917
100, -25.67, 43.74, 0.00, 0.00, 0.000, 0.000, 0.000, 14:44:31.918
101, -28.05, 46.30, 0.00, 0.00, 0.000, 0.000, 0.000, 14:44:31.918
102, -29.81, 43.60, 0.00, 0.00, 0.000, 0.000, 0.000, 14:44:31.918
103, -27.71, 41.77, 0.00, 0.00, 0.000, 0.000, 0.000, 14:44:31.933
104, -25.15, 45.43, 0.00, 0.00, 0.000, 0.000, 0.000, 14:44:31.933
105, -28.25, 46.33, 0.00, 0.00, 0.000, 0.000, 0.000, 14:44:31.948
106, -26.01, 40.73, 0.00, 0.00, 0.000, 0.000, 0.000, 14:44:31.948
107, -27.49, 41.08, 0.00, 0.00, 0.000, 0.000, 0.000, 14:44:31.948
108, -25.41, 50.18, 0.00, 0.00, 0.000, 0.000, 0.000, 14:44:31.948
109, -26.32, 49.83, 0.00, 0.00, 0.000, 0.000, 0.000, 14:44:31.965
110, -29.52, 40.64, 0.00, 0.00, 0.000, 0.000, 0.000, 14:44:31.966
111, -26.87, 44.81, 0.00, 0.00, 0.000, 0.000, 0.000, 14:44:31.978
112, -29.40, 50.83, 0.00, 0.00, 0.000, 0.000, 0.000, 14:44:31.978
113, -28.60, 48.04, 0.00, 0.00, 0.000, 0.000, 0.000, 14:44:31.978
114, -28.26, 44.74, 0.00, 0.00, 0.000, 0.000, 0.000, 14:44:31.978
115, -32.38, 42.16, 0.00, 0.00, 0.000, 0.000, 0.000, 14:44:31.993
116, -25.62, 43.81, 0.00, 0.00, 0.000, 0.000, 0.000, 14:44:31.994
117, -26.27, 48.36, 0.00, 0.00, 0.000, 0.000, 0.000, 14:44:32.008
118, -30.90, 46.27, 0.00, 0.00, 0.000, 0.000, 0.000, 14:44:32.009
119, -28.65, 42.44, 0.00, 0.00, 0.000, 0.000, 0.000, 14:44:32.009
120, -25.13, 48.76, 0.00, 0.00, 0.000, 0.000, 0.000, 14:44:32.009
121, -26.35, 46.39, 0.00, 0.00, 0.000, 0.000, 0.000, 14:44:32.024
122, -31.63, 44.92, 0.00, 0.00, 0.000, 0.000, 0.000, 14:44:32.024
123, -28.52, 46.09, 0.00, 0.00, 0.000, 0.000, 0.000, 14:44:32.040
124, -26.66, 51.68, 0.00, 0.00, 0.000, 0.000, 0.000, 14:44:32.041
125, -30.24, 46.71, 0.00, 0.00, 0.000, 0.000, 0.000, 14:44:32.041
126, -28.89, 42.63, 0.00, 0.00, 0.000, 0.000, 0.000, 14:44:32.041
127, -27.20, 46.18, 0.00, 0.00, 0.000, 0.000, 0.000, 14:44:32.054
128, -27.52, 53.10, 0.00, 0.00, 0.000, 0.000, 0.000, 14:44:32.054
129, -26.41, 51.16, 0.00, 0.00, 0.000, 0.000, 0.000, 14:44:32.070
130, -28.54, 47.17, 0.00, 0.00, 0.000, 0.000, 0.000, 14:44:32.070
131, -28.92, 49.20, 0.00, 0.00, 0.000, 0.000, 0.000, 14:44:32.071
132, -28.28, 51.32, 0.00, 0.00, 0.000, 0.000, 0.000, 14:44:32.071
133, -26.09, 50.14, 0.00, 0.00, 0.000, 0.000, 0.000, 14:44:32.083
134, -31.54, 43.78, 0.00, 0.00, 0.000, 0.000, 0.000, 14:44:32.083
135, -28.02, 41.55, 0.00, 0.00, 0.000, 0.000, 0.000, 14:44:32.098
136, -27.78, 47.41, 0.00, 0.00, 0.000, 0.000, 0.000, 14:44:32.098
137, -26.34, 49.67, 0.00, 0.00, 0.000, 0.000, 0.000, 14:44:32.106
138, -28.26, 46.77, 0.00, 0.00, 0.000, 0.000, 0.000, 14:44:32.106
139, -27.97, 45.64, 0.00, 0.00, 0.000, 0.000, 0.000, 14:44:32.113
140, -28.57, 43.49, 0.00, 0.00, 0.000, 0.000, 0.000, 14:44:32.113
141, -29.02, 45.42, 0.00, 0.00, 0.000, 0.000, 0.000, 14:44:32.128
142, -27.98, 41.08, 0.00, 0.00, 0.000, 0.000, 0.000, 14:44:32.128
143, -28.66, 43.48, 0.00, 0.00, 0.000, 0.000, 0.000, 14:44:32.128
144, -26.01, 51.78, 0.00, 0.00, 0.000, 0.000, 0.000, 14:44:32.128
145, -24.92, 54.13, 0.00, 0.00, 0.000, 0.000, 0.000, 14:44:32.143
146, -29.02, 45.11, 0.00, 0.00, 0.000, 0.000, 0.000, 14:44:32.143
147, -29.18, 43.32, 0.00, 0.00, 0.000, 0.000, 0.000, 14:44:32.159
148, -27.33, 48.57, 0.00, 0.00, 0.000, 0.000, 0.000, 14:44:32.159
149, -25.91, 51.47, 0.00, 0.00, 0.000, 0.000, 0.000, 14:44:32.159
150, -31.10, 48.99, 0.00, 0.00, 0.000, 0.000, 0.000, 14:44:32.160
151, -30.35, 49.28, 0.00, 0.00, 0.000, 0.000, 0.000, 14:44:32.174
152, -26.51, 48.79, 0.00, 0.00, 0.000, 0.000, 0.000, 14:44:32.174
153, -27.51, 47.82, 0.00, 0.00, 0.000, 0.000, 0.000, 14:44:32.188
154, -32.24, 48.14, 0.00, 0.00, 0.000, 0.000, 0.000, 14:44:32.188
155, -26.76, 46.80, 0.00, 0.00, 0.000, 0.000, 0.000, 14:44:32.189
156, -28.27, 52.47, 0.00, 0.00, 0.000, 0.000, 0.000, 14:44:32.189
157, -28.63, 51.59, 0.00, 0.00, 0.000, 0.000, 0.000, 14:44:32.203
158, -31.30, 43.88, 0.00, 0.00, 0.000, 0.000, 0.000, 14:44:32.203
159, -29.09, 43.76, 0.00, 0.00, 0.000, 0.000, 0.000, 14:44:32.218
160, -29.38, 48.09, 0.00, 0.00, 0.000, 0.000, 0.000, 14:44:32.218
161, -27.20, 49.09, 0.00, 0.00, 0.000, 0.000, 0.000, 14:44:32.218
162, -27.82, 49.79, 0.00, 0.00, 0.000, 0.000, 0.000, 14:44:32.219
163, -24.65, 45.37, 0.00, 0.00, 0.000, 0.000, 0.000, 14:44:32.234
164, -23.23, 45.42, 0.00, 0.00, 0.000, 0.000, 0.000, 14:44:32.234
165, -25.67, 42.75, 0.00, 0.00, 0.000, 0.000, 0.000, 14:44:32.248
166, -26.87, 39.58, 0.00, 0.00, 0.000, 0.000, 0.000, 14:44:32.248
167, -25.06, 41.27, 0.00, 0.00, 0.000, 0.000, 0.000, 14:44:32.248
168, -23.71, 52.84, 0.00, 0.00, 0.000, 0.000, 0.000, 14:44:32.248
169, -24.64, 49.98, 0.00, 0.00, 0.000, 0.000, 0.000, 14:44:32.262
170, -28.51, 46.38, 0.00, 0.00, 0.000, 0.000, 0.000, 14:44:32.263
171, -25.43, 49.15, 0.00, 0.00, 0.000, 0.000, 0.000, 14:44:32.278
172, -25.05, 53.87, 0.00, 0.00, 0.000, 0.000, 0.000, 14:44:32.278
173, -24.17, 49.23, 0.00, 0.00, 0.000, 0.000, 0.000, 14:44:32.278
174, -28.66, 45.85, 0.00, 0.00, 0.000, 0.000, 0.000, 14:44:32.279
175, -26.42, 48.40, 0.00, 0.00, 0.000, 0.000, 0.000, 14:44:32.292
176, -22.88, 50.36, 0.00, 0.00, 0.000, 0.000, 0.000, 14:44:32.294
177, -24.67, 51.68, 0.00, 0.00, 0.000, 0.000, 0.000, 14:44:32.307
178, -23.73, 43.88, 0.00, 0.00, 0.000, 0.000, 0.000, 14:44:32.308
179, -25.30, 42.92, 0.00, 0.00, 0.000, 0.000, 0.000, 14:44:32.308
180, -21.77, 48.27, 0.00, 0.00, 0.000, 0.000, 0.000, 14:44:32.308
181, -25.78, 50.73, 0.00, 0.00, 0.000, 0.000, 0.000, 14:44:32.323
182, -27.52, 42.20, 0.00, 0.00, 0.000, 0.000, 0.000, 14:44:32.323
183, -24.91, 44.88, 0.00, 0.00, 0.000, 0.000, 0.000, 14:44:32.339
184, -25.76, 43.49, 0.00, 0.00, 0.000, 0.000, 0.000, 14:44:32.339
185, -26.15, 41.30, 0.00, 0.00, 0.000, 0.000, 0.000, 14:44:32.339
186, -28.92, 43.27, 0.00, 0.00, 0.000, 0.000, 0.000, 14:44:32.339
187, -26.21, 40.16, 0.00, 0.00, 0.000, 0.000, 0.000, 14:44:32.354
188, -24.41, 45.50, 0.00, 0.00, 0.000, 0.000, 0.000, 14:44:32.354
189, -26.49, 45.17, 0.00, 0.00, 0.000, 0.000, 0.000, 14:44:32.368
190, -27.32, 42.83, 0.00, 0.00, 0.000, 0.000, 0.000, 14:44:32.369
191, -23.33, 46.92, 0.00, 0.00, 0.000, 0.000, 0.000, 14:44:32.370
192, -21.14, 52.77, 0.00, 0.00, 0.000, 0.000, 0.000, 14:44:32.371
193, -25.61, 48.78, 0.00, 0.00, 0.000, 0.000, 0.000, 14:44:32.384
194, -26.29, 46.06, 0.00, 0.00, 0.000, 0.000, 0.000, 14:44:32.384
195, -22.91, 39.49, 0.00, 0.00, 0.000, 0.000, 0.000, 14:44:32.398
196, -23.93, 43.73, 0.00, 0.00, 0.000, 0.000, 0.000, 14:44:32.398
197, -24.03, 42.15, 0.00, 0.00, 0.000, 0.000, 0.000, 14:44:32.399
198, -23.34, 44.10, 0.00, 0.00, 0.000, 0.000, 0.000, 14:44:32.399
199, -22.57, 46.22, 0.00, 0.00, 0.000, 0.000, 0.000, 14:44:32.413
200, -20.75, 46.63, 0.00, 0.00, 0.000, 0.000, 0.000, 14:44:32.414
0, -20.50, 48.49, 0.00, 0.00, 0.000, 0.000, 0.000, 14:44:32.414
1, -26.73, 49.11, 0.00, 0.00, 0.000, 0.000, 0.000, 14:44:32.428
2, -25.30, 43.79, 0.00, 0.00, 0.000, 0.000, 0.000, 14:44:32.428
3, -18.93, 48.05, 0.00, 0.00, 0.000, 0.000, 0.000, 14:44:32.443
4, -21.47, 45.39, 0.00, 0.00, 0.000, 0.000, 0.000, 14:44:32.444
5, -24.17, 39.33, 0.00, 0.00, 0.000, 0.000, 0.000, 14:44:32.444
6, -20.53, 42.73, 0.00, 0.00, 0.000, 0.000, 0.000, 14:44:32.444
7, -18.25, 44.23, 0.00, 0.00, 0.000, 0.000, 0.000, 14:44:32.459
8, -19.19, 37.79, 0.00, 0.00, 0.000, 0.000, 0.000, 14:44:32.460
9, -20.56, 39.44, 0.00, 0.00, 0.000, 0.000, 0.000, 14:44:32.478
10, -19.04, 43.01, 0.00, 0.00, 0.000, 0.000, 0.000, 14:44:32.478
11, -16.08, 41.55, 0.00, 0.00, 0.000, 0.000, 0.000, 14:44:32.479
12, -22.13, 42.15, 0.00, 0.00, 0.000, 0.000, 0.000, 14:44:32.479
13, -22.19, 42.80, 0.00, 0.00, 0.000, 0.000, 0.000, 14:44:32.489
14, -19.57, 42.72, 0.00, 0.00, 0.000, 0.000, 0.000, 14:44:32.489
15, -17.74, 41.91, 0.00, 0.00, 0.000, 0.000, 0.000, 14:44:32.504
16, -20.15, 43.28, 0.00, 0.00, 0.000, 0.000, 0.000, 14:44:32.505
17, -22.45, 40.06, 0.00, 0.00, 0.000, 0.000, 0.000, 14:44:32.505
18, -20.54, 40.79, 0.00, 0.00, 0.000, 0.000, 0.000, 14:44:32.505
19, -18.56, 45.09, 0.00, 0.00, 0.000, 0.000, 0.000, 14:44:32.519
20, -18.76, 40.31, 0.00, 0.00, 0.000, 0.000, 0.000, 14:44:32.519
21, -21.90, 39.72, 0.00, 0.00, 0.000, 0.000, 0.000, 14:44:32.533
22, -18.86, 42.11, 0.00, 0.00, 0.000, 0.000, 0.000, 14:44:32.533
23, -18.52, 47.48, 0.00, 0.00, 0.000, 0.000, 0.000, 14:44:32.534
24, -17.04, 49.75, 0.00, 0.00, 0.000, 0.000, 0.000, 14:44:32.534
25, -26.27, 47.83, 0.00, 0.00, 0.000, 0.000, 0.000, 14:44:32.548
26, -20.44, 44.64, 0.00, 0.00, 0.000, 0.000, 0.000, 14:44:32.548
27, -18.88, 46.92, 0.00, 0.00, 0.000, 0.000, 0.000, 14:44:32.563
28, -22.32, 48.61, 0.00, 0.00, 0.000, 0.000, 0.000, 14:44:32.563
29, -23.77, 40.81, 0.00, 0.00, 0.000, 0.000, 0.000, 14:44:32.563
30, -22.55, 40.98, 0.00, 0.00, 0.000, 0.000, 0.000, 14:44:32.563
31, -20.69, 39.65, 0.00, 0.00, 0.000, 0.000, 0.000, 14:44:32.579
32, -18.44, 37.43, 0.00, 0.00, 0.000, 0.000, 0.000, 14:44:32.579
33, -22.10, 36.16, 0.00, 0.00, 0.000, 0.000, 0.000, 14:44:32.594
34, -20.80, 42.22, 0.00, 0.00, 0.000, 0.000, 0.000, 14:44:32.594
35, -21.86, 41.15, 0.00, 0.00, 0.000, 0.000, 0.000, 14:44:32.594
36, -20.39, 45.20, 0.00, 0.00, 0.000, 0.000, 0.000, 14:44:32.595
37, -20.31, 42.53, 0.00, 0.00, 0.000, 0.000, 0.000, 14:44:32.609
38, -20.48, 42.26, 0.00, 0.00, 0.000, 0.000, 0.000, 14:44:32.609
39, -18.75, 45.35, 0.00, 0.00, 0.000, 0.000, 0.000, 14:44:32.624
40, -18.15, 42.65, 0.00, 0.00, 0.000, 0.000, 0.000, 14:44:32.624
41, -25.33, 39.02, 0.00, 0.00, 0.000, 0.000, 0.000, 14:44:32.624
42, -20.16, 38.97, 0.00, 0.00, 0.000, 0.000, 0.000, 14:44:32.625
43, -18.89, 46.55, 0.00, 0.00, 0.000, 0.000, 0.000, 14:44:32.642
44, -19.66, 45.11, 0.00, 0.00, 0.000, 0.000, 0.000, 14:44:32.643
45, -21.71, 43.99, 0.00, 0.00, 0.000, 0.000, 0.000, 14:44:32.654
46, -18.41, 44.09, 0.00, 0.00, 0.000, 0.000, 0.000, 14:44:32.654
47, -17.10, 42.62, 0.00, 0.00, 0.000, 0.000, 0.000, 14:44:32.655
48, -19.41, 40.35, 0.00, 0.00, 0.000, 0.000, 0.000, 14:44:32.655
49, -25.28, 41.59, 0.00, 0.00, 0.000, 0.000, 0.000, 14:44:32.669
50, -21.38, 40.49, 0.00, 0.00, 0.000, 0.000, 0.000, 14:44:32.669
51, -19.89, 46.58, 0.00, 0.00, 0.000, 0.000, 0.000, 14:44:32.685
52, -19.90, 46.72, 0.00, 0.00, 0.000, 0.000, 0.000, 14:44:32.685
53, -21.27, 40.19, 0.00, 0.00, 0.000, 0.000, 0.000, 14:44:32.686
54, -20.10, 45.19, 0.00, 0.00, 0.000, 0.000, 0.000, 14:44:32.686
55, -14.82, 45.42, 0.00, 0.00, 0.000, 0.000, 0.000, 14:44:32.698
56, -15.30, 38.27, 0.00, 0.00, 0.000, 0.000, 0.000, 14:44:32.698
57, -18.10, 42.01, 0.00, 0.00, 0.000, 0.000, 0.000, 14:44:32.713
58, -15.92, 43.31, 0.00, 0.00, 0.000, 0.000, 0.000, 14:44:32.713
59, -16.62, 46.27, 0.00, 0.00, 0.000, 0.000, 0.000, 14:44:32.714
60, -20.93, 42.45, 0.00, 0.00, 0.000, 0.000, 0.000, 14:44:32.714
61, -22.24, 42.62, 0.00, 0.00, 0.000, 0.000, 0.000, 14:44:32.728
62, -22.01, 42.36, 0.00, 0.00, 0.000, 0.000, 0.000, 14:44:32.728
63, -15.98, 46.44, 0.00, 0.00, 0.000, 0.000, 0.000, 14:44:32.743
64, -21.37, 42.92, 0.00, 0.00, 0.000, 0.000, 0.000, 14:44:32.743
65, -24.05, 38.70, 0.00, 0.00, 0.000, 0.000, 0.000, 14:44:32.743
66, -23.04, 42.89, 0.00, 0.00, 0.000, 0.000, 0.000, 14:44:32.744
67, -18.58, 45.82, 0.00, 0.00, 0.000, 0.000, 0.000, 14:44:32.758
68, -21.46, 41.79, 0.00, 0.00, 0.000, 0.000, 0.000, 14:44:32.759
69, -20.33, 39.85, 0.00, 0.00, 0.000, 0.000, 0.000, 14:44:32.773
70, -23.05, 47.50, 0.00, 0.00, 0.000, 0.000, 0.000, 14:44:32.774
71, -20.17, 50.51, 0.00, 0.00, 0.000, 0.000, 0.000, 14:44:32.774
72, -25.99, 48.59, 0.00, 0.00, 0.000, 0.000, 0.000, 14:44:32.774
73, -27.42, 43.05, 0.00, 0.00, 0.000, 0.000, 0.000, 14:44:32.788
74, -21.64, 39.47, 0.00, 0.00, 0.000, 0.000, 0.000, 14:44:32.789
75, -24.03, 40.43, 0.00, 0.00, 0.000, 0.000, 0.000, 14:44:32.803
76, -24.68, 44.98, 0.00, 0.00, 0.000, 0.000, 0.000, 14:44:32.804
77, -23.95, 42.96, 0.00, 0.00, 0.000, 0.000, 0.000, 14:44:32.804
78, -24.11, 44.33, 0.00, 0.00, 0.000, 0.000, 0.000, 14:44:32.804
79, -21.41, 46.97, 0.00, 0.00, 0.000, 0.000, 0.000, 14:44:32.818
80, -25.80, 41.48, 0.00, 0.00, 0.000, 0.000, 0.000, 14:44:32.818
81, -27.12, 39.59, 0.00, 0.00, 0.000, 0.000, 0.000, 14:44:32.833
82, -26.34, 43.86, 0.00, 0.00, 0.000, 0.000, 0.000, 14:44:32.834
83, -20.06, 45.39, 0.00, 0.00, 0.000, 0.000, 0.000, 14:44:32.834
84, -28.04, 48.00, 0.00, 0.00, 0.000, 0.000, 0.000, 14:44:32.834
85, -22.52, 43.27, 0.00, 0.00, 0.000, 0.000, 0.000, 14:44:32.848
86, -23.79, 47.55, 0.00, 0.00, 0.000, 0.000, 0.000, 14:44:32.849
87, -24.63, 52.71, 0.00, 0.00, 0.000, 0.000, 0.000, 14:44:32.863
88, -23.11, 47.79, 0.00, 0.00, 0.000, 0.000, 0.000, 14:44:32.863
89, -26.28, 43.78, 0.00, 0.00, 0.000, 0.000, 0.000, 14:44:32.863
90, -23.37, 43.27, 0.00, 0.00, 0.000, 0.000, 0.000, 14:44:32.864
91, -20.52, 45.27, 0.00, 0.00, 0.000, 0.000, 0.000, 14:44:32.878
92, -22.21, 42.36, 0.00, 0.00, 0.000, 0.000, 0.000, 14:44:32.879
93, -25.78, 40.60, 0.00, 0.00, 0.000, 0.000, 0.000, 14:44:32.894
94, -24.02, 44.70, 0.00, 0.00, 0.000, 0.000, 0.000, 14:44:32.894
95, -20.75, 45.06, 0.00, 0.00, 0.000, 0.000, 0.000, 14:44:32.895
96, -24.30, 41.75, 0.00, 0.00, 0.000, 0.000, 0.000, 14:44:32.895
97, -26.82, 43.35, 0.00, 0.00, 0.000, 0.000, 0.000, 14:44:32.909
98, -23.28, 41.68, 0.00, 0.00, 0.000, 0.000, 0.000, 14:44:32.909
99, -19.99, 46.41, 0.00, 0.00, 0.000, 0.000, 0.000, 14:44:32.923
100, -24.37, 43.18, 0.00, 0.00, 0.000, 0.000, 0.000, 14:44:32.923
101, -25.21, 43.70, 0.00, 0.00, 0.000, 0.000, 0.000, 14:44:32.924
102, -26.49, 45.25, 0.00, 0.00, 0.000, 0.000, 0.000, 14:44:32.924
103, -19.61, 44.61, 0.00, 0.00, 0.000, 0.000, 0.000, 14:44:32.938
104, -20.01, 47.03, 0.00, 0.00, 0.000, 0.000, 0.000, 14:44:32.939
105, -23.12, 42.75, 0.00, 0.00, 0.000, 0.000, 0.000, 14:44:32.955
106, -27.70, 42.09, 0.00, 0.00, 0.000, 0.000, 0.000, 14:44:32.956
107, -23.10, 45.64, 0.00, 0.00, 0.000, 0.000, 0.000, 14:44:32.956
108, -23.73, 42.30, 0.00, 0.00, 0.000, 0.000, 0.000, 14:44:32.956
109, -26.04, 41.76, 0.00, 0.00, 0.000, 0.000, 0.000, 14:44:32.968
110, -23.81, 40.24, 0.00, 0.00, 0.000, 0.000, 0.000, 14:44:32.968
111, -19.51, 47.77, 0.00, 0.00, 0.000, 0.000, 0.000, 14:44:32.982
112, -21.97, 47.87, 0.00, 0.00, 0.000, 0.000, 0.000, 14:44:32.983
113, -26.34, 45.54, 0.00, 0.00, 0.000, 0.000, 0.000, 14:44:32.990
114, -25.14, 46.18, 0.00, 0.00, 0.000, 0.000, 0.000, 14:44:32.990
115, -23.55, 48.42, 0.00, 0.00, 0.000, 0.000, 0.000, 14:44:32.997
116, -25.82, 47.68, 0.00, 0.00, 0.000, 0.000, 0.000, 14:44:32.998
117, -26.38, 42.69, 0.00, 0.00, 0.000, 0.000, 0.000, 14:44:33.013
118, -20.43, 45.49, 0.00, 0.00, 0.000, 0.000, 0.000, 14:44:33.013
119, -24.12, 49.51, 0.00, 0.00, 0.000, 0.000, 0.000, 14:44:33.013
120, -25.16, 50.57, 0.00, 0.00, 0.000, 0.000, 0.000, 14:44:33.013
121, -26.48, 46.23, 0.00, 0.00, 0.000, 0.000, 0.000, 14:44:33.029
122, -25.38, 37.55, 0.00, 0.00, 0.000, 0.000, 0.000, 14:44:33.029
123, -25.85, 48.94, 0.00, 0.00, 0.000, 0.000, 0.000, 14:44:33.043
124, -28.74, 47.12, 0.00, 0.00, 0.000, 0.000, 0.000, 14:44:33.044
125, -29.52, 43.43, 0.00, 0.00, 0.000, 0.000, 0.000, 14:44:33.044
126, -27.58, 42.95, 0.00, 0.00, 0.000, 0.000, 0.000, 14:44:33.044
127, -24.76, 47.14, 0.00, 0.00, 0.000, 0.000, 0.000, 14:44:33.059
128, -26.09, 46.43, 0.00, 0.00, 0.000, 0.000, 0.000, 14:44:33.059
129, -25.49, 38.17, 0.00, 0.00, 0.000, 0.000, 0.000, 14:44:33.073
130, -28.28, 41.39, 0.00, 0.00, 0.000, 0.000, 0.000, 14:44:33.073
131, -22.87, 44.94, 0.00, 0.00, 0.000, 0.000, 0.000, 14:44:33.074
132, -25.97, 43.10, 0.00, 0.00, 0.000, 0.000, 0.000, 14:44:33.074
133, -26.14, 42.75, 0.00, 0.00, 0.000, 0.000, 0.000, 14:44:33.088
134, -27.97, 44.15, 0.00, 0.00, 0.000, 0.000, 0.000, 14:44:33.088
135, -22.21, 47.76, 0.00, 0.00, 0.000, 0.000, 0.000, 14:44:33.103
136, -25.75, 49.36, 0.00, 0.00, 0.000, 0.000, 0.000, 14:44:33.103
137, -29.00, 43.73, 0.00, 0.00, 0.000, 0.000, 0.000, 14:44:33.103
138, -25.47, 44.44, 0.00, 0.00, 0.000, 0.000, 0.000, 14:44:33.103
139, -24.41, 48.58, 0.00, 0.00, 0.000, 0.000, 0.000, 14:44:33.118
140, -24.19, 46.95, 0.00, 0.00, 0.000, 0.000, 0.000, 14:44:33.118
141, -30.13, 34.25, 0.00, 0.00, 0.000, 0.000, 0.000, 14:44:33.133
142, -24.51, 43.95, 0.00, 0.00, 0.000, 0.000, 0.000, 14:44:33.133
143, -24.36, 45.33, 0.00, 0.00, 0.000, 0.000, 0.000, 14:44:33.134
144, -28.40, 44.91, 0.00, 0.00, 0.000, 0.000, 0.000, 14:44:33.134
145, -32.49, 45.20, 0.00, 0.00, 0.000, 0.000, 0.000, 14:44:33.148
146, -30.55, 42.17, 0.00, 0.00, 0.000, 0.000, 0.000, 14:44:33.148
147, -30.01, 43.98, 0.00, 0.00, 0.000, 0.000, 0.000, 14:44:33.164
148, -26.03, 45.64, 0.00, 0.00, 0.000, 0.000, 0.000, 14:44:33.164
149, -27.31, 40.50, 0.00, 0.00, 0.000, 0.000, 0.000, 14:44:33.164
150, -27.70, 42.34, 0.00, 0.00, 0.000, 0.000, 0.000, 14:44:33.165
151, -25.55, 46.81, 0.00, 0.00, 0.000, 0.000, 0.000, 14:44:33.178
152, -28.11, 45.86, 0.00, 0.00, 0.000, 0.000, 0.000, 14:44:33.179
153, -25.10, 44.10, 0.00, 0.00, 0.000, 0.000, 0.000, 14:44:33.194
154, -26.36, 45.80, 0.00, 0.00, 0.000, 0.000, 0.000, 14:44:33.194
155, -26.31, 50.60, 0.00, 0.00, 0.000, 0.000, 0.000, 14:44:33.194
156, -28.10, 50.03, 0.00, 0.00, 0.000, 0.000, 0.000, 14:44:33.194
157, -28.85, 42.73, 0.00, 0.00, 0.000, 0.000, 0.000, 14:44:33.208
158, -24.17, 38.93, 0.00, 0.00, 0.000, 0.000, 0.000, 14:44:33.208
159, -22.73, 44.58, 0.00, 0.00, 0.000, 0.000, 0.000, 14:44:33.224
160, -27.21, 45.75, 0.00, 0.00, 0.000, 0.000, 0.000, 14:44:33.224
161, -27.54, 43.71, 0.00, 0.00, 0.000, 0.000, 0.000, 14:44:33.224
162, -26.92, 43.43, 0.00, 0.00, 0.000, 0.000, 0.000, 14:44:33.224
163, -26.38, 44.91, 0.00, 0.00, 0.000, 0.000, 0.000, 14:44:33.238
164, -25.09, 44.78, 0.00, 0.00, 0.000, 0.000, 0.000, 14:44:33.238
165, -28.78, 43.07, 0.00, 0.00, 0.000, 0.000, 0.000, 14:44:33.254
166, -28.09, 44.39, 0.00, 0.00, 0.000, 0.000, 0.000, 14:44:33.254
167, -27.22, 45.66, 0.00, 0.00, 0.000, 0.000, 0.000, 14:44:33.254
168, -26.96, 46.93, 0.00, 0.00, 0.000, 0.000, 0.000, 14:44:33.254
169, -28.12, 45.65, 0.00, 0.00, 0.000, 0.000, 0.000, 14:44:33.275
170, -27.64, 45.47, 0.00, 0.00, 0.000, 0.000, 0.000, 14:44:33.275
171, -29.33, 47.13, 0.00, 0.00, 0.000, 0.000, 0.000, 14:44:33.286
172, -27.75, 46.32, 0.00, 0.00, 0.000, 0.000, 0.000, 14:44:33.286
173, -26.48, 40.95, 0.00, 0.00, 0.000, 0.000, 0.000, 14:44:33.286
174, -29.47, 41.13, 0.00, 0.00, 0.000, 0.000, 0.000, 14:44:33.287
175, -25.43, 46.76, 0.00, 0.00, 0.000, 0.000, 0.000, 14:44:33.299
176, -29.31, 42.59, 0.00, 0.00, 0.000, 0.000, 0.000, 14:44:33.299
177, -31.28, 41.12, 0.00, 0.00, 0.000, 0.000, 0.000, 14:44:33.313
178, -26.81, 47.43, 0.00, 0.00, 0.000, 0.000, 0.000, 14:44:33.313
179, -29.52, 52.83, 0.00, 0.00, 0.000, 0.000, 0.000, 14:44:33.314
180, -27.08, 53.01, 0.00, 0.00, 0.000, 0.000, 0.000, 14:44:33.314
181, -32.42, 45.90, 0.00, 0.00, 0.000, 0.000, 0.000, 14:44:33.328
182, -27.43, 45.19, 0.00, 0.00, 0.000, 0.000, 0.000, 14:44:33.328
183, -27.85, 52.32, 0.00, 0.00, 0.000, 0.000, 0.000, 14:44:33.344
184, -26.91, 49.13, 0.00, 0.00, 0.000, 0.000, 0.000, 14:44:33.344
185, -28.21, 41.28, 0.00, 0.00, 0.000, 0.000, 0.000, 14:44:33.345
186, -28.63, 42.06, 0.00, 0.00, 0.000, 0.000, 0.000, 14:44:33.345
187, -26.39, 48.73, 0.00, 0.00, 0.000, 0.000, 0.000, 14:44:33.358
188, -27.86, 46.89, 0.00, 0.00, 0.000, 0.000, 0.000, 14:44:33.358
189, -27.57, 43.28, 0.00, 0.00, 0.000, 0.000, 0.000, 14:44:33.373
190, -25.93, 42.06, 0.00, 0.00, 0.000, 0.000, 0.000, 14:44:33.373
191, -22.85, 44.06, 0.00, 0.00, 0.000, 0.000, 0.000, 14:44:33.373
192, -27.36, 45.78, 0.00, 0.00, 0.000, 0.000, 0.000, 14:44:33.374
193, -28.62, 48.83, 0.00, 0.00, 0.000, 0.000, 0.000, 14:44:33.388
194, -26.05, 47.03, 0.00, 0.00, 0.000, 0.000, 0.000, 14:44:33.388
195, -23.21, 49.48, 0.00, 0.00, 0.000, 0.000, 0.000, 14:44:33.406
196, -24.43, 43.70, 0.00, 0.00, 0.000, 0.000, 0.000, 14:44:33.406
197, -27.93, 36.70, 0.00, 0.00, 0.000, 0.000, 0.000, 14:44:33.406
198, -26.48, 39.71, 0.00, 0.00, 0.000, 0.000, 0.000, 14:44:33.406
199, -27.85, 47.68, 0.00, 0.00, 0.000, 0.000, 0.000, 14:44:33.418
200, -24.68, 43.45, 0.00, 0.00, 0.000, 0.000, 0.000, 14:44:33.418
0, -29.32, 36.70, 0.00, 0.00, 0.000, 0.000, 0.000, 14:44:33.418
1, -29.78, 43.07, 0.00, 0.00, 0.000, 0.000, 0.000, 14:44:33.433
2, -26.70, 44.21, 0.00, 0.00, 0.000, 0.000, 0.000, 14:44:33.433
3, -32.32, 47.78, 0.00, 0.00, 0.000, 0.000, 0.000, 14:44:33.448
4, -29.52, 43.40, 0.00, 0.00, 0.000, 0.000, 0.000, 14:44:33.448
5, -28.25, 46.33, 0.00, 0.00, 0.000, 0.000, 0.000, 14:44:33.449
6, -26.99, 50.38, 0.00, 0.00, 0.000, 0.000, 0.000, 14:44:33.449
7, -26.53, 47.92, 0.00, 0.00, 0.000, 0.000, 0.000, 14:44:33.463
8, -32.40, 45.11, 0.00, 0.00, 0.000, 0.000, 0.000, 14:44:33.463
9, -29.23, 49.91, 0.00, 0.00, 0.000, 0.000, 0.000, 14:44:33.479
10, -27.18, 50.59, 0.00, 0.00, 0.000, 0.000, 0.000, 14:44:33.479
11, -26.34, 51.95, 0.00, 0.00, 0.000, 0.000, 0.000, 14:44:33.479
12, -29.36, 48.03, 0.00, 0.00, 0.000, 0.000, 0.000, 14:44:33.480
13, -29.43, 44.17, 0.00, 0.00, 0.000, 0.000, 0.000, 14:44:33.492
14, -22.52, 43.65, 0.00, 0.00, 0.000, 0.000, 0.000, 14:44:33.495
15, -29.07, 48.07, 0.00, 0.00, 0.000, 0.000, 0.000, 14:44:33.508
16, -28.26, 43.28, 0.00, 0.00, 0.000, 0.000, 0.000, 14:44:33.508
17, -25.49, 42.46, 0.00, 0.00, 0.000, 0.000, 0.000, 14:44:33.509
18, -26.22, 47.39, 0.00, 0.00, 0.000, 0.000, 0.000, 14:44:33.509
19, -29.75, 47.65, 0.00, 0.00, 0.000, 0.000, 0.000, 14:44:33.523
20, -30.13, 46.10, 0.00, 0.00, 0.000, 0.000, 0.000, 14:44:33.523
21, -27.28, 43.15, 0.00, 0.00, 0.000, 0.000, 0.000, 14:44:33.538
22, -26.74, 52.61, 0.00, 0.00, 0.000, 0.000, 0.000, 14:44:33.538
23, -25.63, 51.62, 0.00, 0.00, 0.000, 0.000, 0.000, 14:44:33.538
24, -26.47, 51.68, 0.00, 0.00, 0.000, 0.000, 0.000, 14:44:33.538
25, -26.07, 52.12, 0.00, 0.00, 0.000, 0.000, 0.000, 14:44:33.553
26, -25.50, 55.23, 0.00, 0.00, 0.000, 0.000, 0.000, 14:44:33.553
27, -28.40, 51.92, 0.00, 0.00, 0.000, 0.000, 0.000, 14:44:33.568
28, -30.50, 46.73, 0.00, 0.00, 0.000, 0.000, 0.000, 14:44:33.568
29, -24.67, 51.14, 0.00, 0.00, 0.000, 0.000, 0.000, 14:44:33.568
30, -22.99, 53.69, 0.00, 0.00, 0.000, 0.000, 0.000, 14:44:33.569
31, -23.91, 51.82, 0.00, 0.00, 0.000, 0.000, 0.000, 14:44:33.584
32, -28.57, 46.74, 0.00, 0.00, 0.000, 0.000, 0.000, 14:44:33.584
33, -24.76, 52.50, 0.00, 0.00, 0.000, 0.000, 0.000, 14:44:33.599
34, -28.36, 51.27, 0.00, 0.00, 0.000, 0.000, 0.000, 14:44:33.599
35, -25.56, 48.25, 0.00, 0.00, 0.000, 0.000, 0.000, 14:44:33.606
36, -28.47, 47.45, 0.00, 0.00, 0.000, 0.000, 0.000, 14:44:33.606
37, -26.84, 54.04, 0.00, 0.00, 0.000, 0.000, 0.000, 14:44:33.613
38, -26.29, 53.02, 0.00, 0.00, 0.000, 0.000, 0.000, 14:44:33.613
39, -24.04, 47.28, 0.00, 0.00, 0.000, 0.000, 0.000, 14:44:33.628
40, -28.18, 46.39, 0.00, 0.00, 0.000, 0.000, 0.000, 14:44:33.628
41, -28.83, 50.00, 0.00, 0.00, 0.000, 0.000, 0.000, 14:44:33.628
42, -26.39, 52.42, 0.00, 0.00, 0.000, 0.000, 0.000, 14:44:33.628
43, -27.90, 49.38, 0.00, 0.00, 0.000, 0.000, 0.000, 14:44:33.643
44, -28.58, 46.55, 0.00, 0.00, 0.000, 0.000, 0.000, 14:44:33.644
45, -26.27, 47.77, 0.00, 0.00, 0.000, 0.000, 0.000, 14:44:33.658
46, -25.64, 53.26, 0.00, 0.00, 0.000, 0.000, 0.000, 14:44:33.658
47, -26.63, 49.58, 0.00, 0.00, 0.000, 0.000, 0.000, 14:44:33.659
48, -26.46, 42.98, 0.00, 0.00, 0.000, 0.000, 0.000, 14:44:33.659
49, -25.59, 49.28, 0.00, 0.00, 0.000, 0.000, 0.000, 14:44:33.674
50, -26.49, 49.89, 0.00, 0.00, 0.000, 0.000, 0.000, 14:44:33.674
51, -27.03, 51.13, 0.00, 0.00, 0.000, 0.000, 0.000, 14:44:33.687
52, -24.80, 46.72, 0.00, 0.00, 0.000, 0.000, 0.000, 14:44:33.688
53, -25.95, 47.76, 0.00, 0.00, 0.000, 0.000, 0.000, 14:44:33.688
54, -25.10, 51.87, 0.00, 0.00, 0.000, 0.000, 0.000, 14:44:33.689
55, -25.93, 49.05, 0.00, 0.00, 0.000, 0.000, 0.000, 14:44:33.703
56, -27.60, 43.47, 0.00, 0.00, 0.000, 0.000, 0.000, 14:44:33.703
57, -24.13, 46.25, 0.00, 0.00, 0.000, 0.000, 0.000, 14:44:33.718
58, -25.65, 54.14, 0.00, 0.00, 0.000, 0.000, 0.000, 14:44:33.718
59, -24.17, 45.53, 0.00, 0.00, 0.000, 0.000, 0.000, 14:44:33.718
60, -23.27, 44.86, 0.00, 0.00, 0.000, 0.000, 0.000, 14:44:33.719
61, -22.90, 48.93, 0.00, 0.00, 0.000, 0.000, 0.000, 14:44:33.734
62, -21.48, 46.71, 0.00, 0.00, 0.000, 0.000, 0.000, 14:44:33.734
63, -22.29, 45.25, 0.00, 0.00, 0.000, 0.000, 0.000, 14:44:33.748
64, -24.20, 49.17, 0.00, 0.00, 0.000, 0.000, 0.000, 14:44:33.748
65, -24.75, 50.11, 0.00, 0.00, 0.000, 0.000, 0.000, 14:44:33.749
66, -24.86, 51.12, 0.00, 0.00, 0.000, 0.000, 0.000, 14:44:33.749
67, -25.79, 49.29, 0.00, 0.00, 0.000, 0.000, 0.000, 14:44:33.763
68, -26.83, 43.92, 0.00, 0.00, 0.000, 0.000, 0.000, 14:44:33.763
69, -24.69, 45.30, 0.00, 0.00, 0.000, 0.000, 0.000, 14:44:33.778
70, -23.64, 50.55, 0.00, 0.00, 0.000, 0.000, 0.000, 14:44:33.778
71, -21.28, 49.79, 0.00, 0.00, 0.000, 0.000, 0.000, 14:44:33.778
72, -24.33, 48.38, 0.00, 0.00, 0.000, 0.000, 0.000, 14:44:33.779
73, -23.24, 50.72, 0.00, 0.00, 0.000, 0.000, 0.000, 14:44:33.793
74, -21.28, 48.54, 0.00, 0.00, 0.000, 0.000, 0.000, 14:44:33.793
75, -24.31, 47.71, 0.00, 0.00, 0.000, 0.000, 0.000, 14:44:33.808
76, -28.49, 48.29, 0.00, 0.00, 0.000, 0.000, 0.000, 14:44:33.808
77, -24.70, 42.82, 0.00, 0.00, 0.000, 0.000, 0.000, 14:44:33.809
78, -23.49, 49.33, 0.00, 0.00, 0.000, 0.000, 0.000, 14:44:33.809
79, -25.60, 48.41, 0.00, 0.00, 0.000, 0.000, 0.000, 14:44:33.824
80, -25.95, 40.26, 0.00, 0.00, 0.000, 0.000, 0.000, 14:44:33.824
81, -22.50, 44.52, 0.00, 0.00, 0.000, 0.000, 0.000, 14:44:33.839
82, -21.20, 45.75, 0.00, 0.00, 0.000, 0.000, 0.000, 14:44:33.840
83, -22.62, 44.73, 0.00, 0.00, 0.000, 0.000, 0.000, 14:44:33.840
84, -23.90, 38.96, 0.00, 0.00, 0.000, 0.000, 0.000, 14:44:33.841
85, -23.97, 45.55, 0.00, 0.00, 0.000, 0.000, 0.000, 14:44:33.861
86, -20.68, 47.58, 0.00, 0.00, 0.000, 0.000, 0.000, 14:44:33.861
87, -26.22, 49.49, 0.00, 0.00, 0.000, 0.000, 0.000, 14:44:33.868
88, -24.64, 50.12, 0.00, 0.00, 0.000, 0.000, 0.000, 14:44:33.869
89, -22.65, 47.50, 0.00, 0.00, 0.000, 0.000, 0.000, 14:44:33.869
90, -22.00, 52.60, 0.00, 0.00, 0.000, 0.000, 0.000, 14:44:33.869
91, -22.79, 48.14, 0.00, 0.00, 0.000, 0.000, 0.000, 14:44:33.889
92, -21.89, 39.87, 0.00, 0.00, 0.000, 0.000, 0.000, 14:44:33.890
93, -22.29, 42.61, 0.00, 0.00, 0.000, 0.000, 0.000, 14:44:33.898
94, -20.64, 43.00, 0.00, 0.00, 0.000, 0.000, 0.000, 14:44:33.899
95, -21.82, 40.79, 0.00, 0.00, 0.000, 0.000, 0.000, 14:44:33.899
96, -21.34, 45.73, 0.00, 0.00, 0.000, 0.000, 0.000, 14:44:33.899
97, -18.79, 45.72, 0.00, 0.00, 0.000, 0.000, 0.000, 14:44:33.913
98, -17.14, 43.79, 0.00, 0.00, 0.000, 0.000, 0.000, 14:44:33.913
99, -21.40, 41.78, 0.00, 0.00, 0.000, 0.000, 0.000, 14:44:33.928
100, -21.78, 43.41, 0.00, 0.00, 0.000, 0.000, 0.000, 14:44:33.928
101, -18.77, 43.22, 0.00, 0.00, 0.000, 0.000, 0.000, 14:44:33.928
102, -18.83, 46.62, 0.00, 0.00, 0.000, 0.000, 0.000, 14:44:33.928
103, -21.32, 47.85, 0.00, 0.00, 0.000, 0.000, 0.000, 14:44:33.943
104, -26.61, 47.27, 0.00, 0.00, 0.000, 0.000, 0.000, 14:44:33.944
105, -21.55, 48.74, 0.00, 0.00, 0.000, 0.000, 0.000, 14:44:33.958
106, -22.88, 50.99, 0.00, 0.00, 0.000, 0.000, 0.000, 14:44:33.958
107, -24.70, 42.72, 0.00, 0.00, 0.000, 0.000, 0.000, 14:44:33.959
108, -26.28, 39.23, 0.00, 0.00, 0.000, 0.000, 0.000, 14:44:33.959
109, -26.49, 46.35, 0.00, 0.00, 0.000, 0.000, 0.000, 14:44:33.973
110, -21.12, 45.36, 0.00, 0.00, 0.000, 0.000, 0.000, 14:44:33.973
111, -21.60, 46.78, 0.00, 0.00, 0.000, 0.000, 0.000, 14:44:33.989
112, -25.64, 46.35, 0.00, 0.00, 0.000, 0.000, 0.000, 14:44:33.989
113, -24.83, 45.68, 0.00, 0.00, 0.000, 0.000, 0.000, 14:44:33.989
114, -22.66, 51.11, 0.00, 0.00, 0.000, 0.000, 0.000, 14:44:33.989
115, -22.11, 48.62, 0.00, 0.00, 0.000, 0.000, 0.000, 14:44:34.004
116, -24.17, 44.16, 0.00, 0.00, 0.000, 0.000, 0.000, 14:44:34.004
117, -23.99, 41.15, 0.00, 0.00, 0.000, 0.000, 0.000, 14:44:34.018
118, -19.89, 48.18, 0.00, 0.00, 0.000, 0.000, 0.000, 14:44:34.018
119, -25.72, 46.31, 0.00, 0.00, 0.000, 0.000, 0.000, 14:44:34.018
120, -25.40, 48.11, 0.00, 0.00, 0.000, 0.000, 0.000, 14:44:34.018
121, -22.63, 47.58, 0.00, 0.00, 0.000, 0.000, 0.000, 14:44:34.033
122, -20.44, 43.85, 0.00, 0.00, 0.000, 0.000, 0.000, 14:44:34.033
123, -21.56, 45.43, 0.00, 0.00, 0.000, 0.000, 0.000, 14:44:34.048
124, -23.75, 46.72, 0.00, 0.00, 0.000, 0.000, 0.000, 14:44:34.048
125, -25.41, 42.15, 0.00, 0.00, 0.000, 0.000, 0.000, 14:44:34.048
126, -22.47, 45.94, 0.00, 0.00, 0.000, 0.000, 0.000, 14:44:34.049
127, -22.65, 49.39, 0.00, 0.00, 0.000, 0.000, 0.000, 14:44:34.063
128, -26.30, 41.85, 0.00, 0.00, 0.000, 0.000, 0.000, 14:44:34.064
129, -26.23, 42.78, 0.00, 0.00, 0.000, 0.000, 0.000, 14:44:34.078
130, -25.23, 44.46, 0.00, 0.00, 0.000, 0.000, 0.000, 14:44:34.078
131, -23.09, 41.86, 0.00, 0.00, 0.000, 0.000, 0.000, 14:44:34.078
132, -26.58, 39.10, 0.00, 0.00, 0.000, 0.000, 0.000, 14:44:34.078
133, -25.04, 42.25, 0.00, 0.00, 0.000, 0.000, 0.000, 14:44:34.095
134, -20.34, 40.66, 0.00, 0.00, 0.000, 0.000, 0.000, 14:44:34.095
135, -22.27, 40.52, 0.00, 0.00, 0.000, 0.000, 0.000, 14:44:34.109
136, -26.08, 39.52, 0.00, 0.00, 0.000, 0.000, 0.000, 14:44:34.110
137, -22.51, 40.31, 0.00, 0.00, 0.000, 0.000, 0.000, 14:44:34.111
138, -19.40, 47.11, 0.00, 0.00, 0.000, 0.000, 0.000, 14:44:34.112
139, -23.41, 46.35, 0.00, 0.00, 0.000, 0.000, 0.000, 14:44:34.124
140, -25.01, 38.81, 0.00, 0.00, 0.000, 0.000, 0.000, 14:44:34.125
141, -20.20, 44.98, 0.00, 0.00, 0.000, 0.000, 0.000, 14:44:34.139
142, -22.40, 49.13, 0.00, 0.00, 0.000, 0.000, 0.000, 14:44:34.140
143, -23.99, 46.10, 0.00, 0.00, 0.000, 0.000, 0.000, 14:44:34.141
144, -26.29, 43.34, 0.00, 0.00, 0.000, 0.000, 0.000, 14:44:34.141
145, -20.32, 42.80, 0.00, 0.00, 0.000, 0.000, 0.000, 14:44:34.154
146, -20.28, 43.29, 0.00, 0.00, 0.000, 0.000, 0.000, 14:44:34.154
147, -23.33, 41.86, 0.00, 0.00, 0.000, 0.000, 0.000, 14:44:34.169
148, -27.78, 44.64, 0.00, 0.00, 0.000, 0.000, 0.000, 14:44:34.169
149, -23.26, 47.86, 0.00, 0.00, 0.000, 0.000, 0.000, 14:44:34.169
150, -22.19, 52.93, 0.00, 0.00, 0.000, 0.000, 0.000, 14:44:34.170
151, -23.54, 48.79, 0.00, 0.00, 0.000, 0.000, 0.000, 14:44:34.183
152, -27.41, 40.19, 0.00, 0.00, 0.000, 0.000, 0.000, 14:44:34.183
153, -25.13, 38.12, 0.00, 0.00, 0.000, 0.000, 0.000, 14:44:34.198
154, -20.98, 42.19, 0.00, 0.00, 0.000, 0.000, 0.000, 14:44:34.198
155, -24.90, 41.93, 0.00, 0.00, 0.000, 0.000, 0.000, 14:44:34.198
156, -25.75, 42.14, 0.00, 0.00, 0.000, 0.000, 0.000, 14:44:34.198
157, -23.61, 45.84, 0.00, 0.00, 0.000, 0.000, 0.000, 14:44:34.213
158, -23.55, 50.12, 0.00, 0.00, 0.000, 0.000, 0.000, 14:44:34.213
159, -25.95, 48.41, 0.00, 0.00, 0.000, 0.000, 0.000, 14:44:34.228
160, -27.26, 43.37, 0.00, 0.00, 0.000, 0.000, 0.000, 14:44:34.228
161, -28.51, 40.73, 0.00, 0.00, 0.000, 0.000, 0.000, 14:44:34.228
162, -22.59, 47.44, 0.00, 0.00, 0.000, 0.000, 0.000, 14:44:34.229
163, -23.18, 47.24, 0.00, 0.00, 0.000, 0.000, 0.000, 14:44:34.243
164, -28.52, 43.11, 0.00, 0.00, 0.000, 0.000, 0.000, 14:44:34.243
165, -29.56, 46.56, 0.00, 0.00, 0.000, 0.000, 0.000, 14:44:34.259
166, -25.79, 51.04, 0.00, 0.00, 0.000, 0.000, 0.000, 14:44:34.259
167, -27.17, 46.05, 0.00, 0.00, 0.000, 0.000, 0.000, 14:44:34.260
168, -26.05, 42.93, 0.00, 0.00, 0.000, 0.000, 0.000, 14:44:34.260
169, -24.20, 48.10, 0.00, 0.00, 0.000, 0.000, 0.000, 14:44:34.273
170, -23.92, 49.67, 0.00, 0.00, 0.000, 0.000, 0.000, 14:44:34.273
171, -26.77, 50.34, 0.00, 0.00, 0.000, 0.000, 0.000, 14:44:34.288
172, -26.62, 49.92, 0.00, 0.00, 0.000, 0.000, 0.000, 14:44:34.288
173, -26.41, 46.44, 0.00, 0.00, 0.000, 0.000, 0.000, 14:44:34.289
174, -24.27, 53.79, 0.00, 0.00, 0.000, 0.000, 0.000, 14:44:34.290
175, -24.44, 50.31, 0.00, 0.00, 0.000, 0.000, 0.000, 14:44:34.304
176, -23.19, 44.95, 0.00, 0.00, 0.000, 0.000, 0.000, 14:44:34.305
177, -24.11, 45.02, 0.00, 0.00, 0.000, 0.000, 0.000, 14:44:34.321
178, -21.09, 49.32, 0.00, 0.00, 0.000, 0.000, 0.000, 14:44:34.321
179, -24.81, 49.65, 0.00, 0.00, 0.000, 0.000, 0.000, 14:44:34.328
180, -27.05, 49.08, 0.00, 0.00, 0.000, 0.000, 0.000, 14:44:34.328
181, -26.26, 50.24, 0.00, 0.00, 0.000, 0.000, 0.000, 14:44:34.333
182, -20.19, 49.21, 0.00, 0.00, 0.000, 0.000, 0.000, 14:44:34.333
183, -26.79, 48.67, 0.00, 0.00, 0.000, 0.000, 0.000, 14:44:34.348
184, -26.93, 49.08, 0.00, 0.00, 0.000, 0.000, 0.000, 14:44:34.348
185, -26.29, 48.16, 0.00, 0.00, 0.000, 0.000, 0.000, 14:44:34.348
186, -23.55, 52.81, 0.00, 0.00, 0.000, 0.000, 0.000, 14:44:34.348
187, -24.36, 44.45, 0.00, 0.00, 0.000, 0.000, 0.000, 14:44:34.363
188, -21.00, 43.06, 0.00, 0.00, 0.000, 0.000, 0.000, 14:44:34.363
189, -23.40, 47.38, 0.00, 0.00, 0.000, 0.000, 0.000, 14:44:34.378
190, -20.49, 51.79, 0.00, 0.00, 0.000, 0.000, 0.000, 14:44:34.378
191, -22.22, 45.11, 0.00, 0.00, 0.000, 0.000, 0.000, 14:44:34.379
192, -24.77, 50.49, 0.00, 0.00, 0.000, 0.000, 0.000, 14:44:34.379
193, -23.29, 49.28, 0.00, 0.00, 0.000, 0.000, 0.000, 14:44:34.393
194, -21.24, 49.74, 0.00, 0.00, 0.000, 0.000, 0.000, 14:44:34.393
195, -22.81, 45.17, 0.00, 0.00, 0.000, 0.000, 0.000, 14:44:34.409
196, -23.66, 45.54, 0.00, 0.00, 0.000, 0.000, 0.000, 14:44:34.409
197, -23.51, 47.86, 0.00, 0.00, 0.000, 0.000, 0.000, 14:44:34.409
198, -21.99, 53.33, 0.00, 0.00, 0.000, 0.000, 0.000, 14:44:34.409
199, -24.10, 48.34, 0.00, 0.00, 0.000, 0.000, 0.000, 14:44:34.423
200, -22.74, 40.10, 0.00, 0.00, 0.000, 0.000, 0.000, 14:44:34.424
0, -23.85, 46.51, 0.00, 0.00, 0.000, 0.000, 0.000, 14:44:34.424
1, -20.28, 49.03, 0.00, 0.00, 0.000, 0.000, 0.000, 14:44:34.439
2, -19.99, 42.18, 0.00, 0.00, 0.000, 0.000, 0.000, 14:44:34.439
3, -24.04, 43.14, 0.00, 0.00, 0.000, 0.000, 0.000, 14:44:34.454
4, -22.92, 45.18, 0.00, 0.00, 0.000, 0.000, 0.000, 14:44:34.454
5, -21.61, 49.24, 0.00, 0.00, 0.000, 0.000, 0.000, 14:44:34.454
6, -20.87, 49.95, 0.00, 0.00, 0.000, 0.000, 0.000, 14:44:34.454
7, -23.62, 44.78, 0.00, 0.00, 0.000, 0.000, 0.000, 14:44:34.468
8, -18.61, 41.77, 0.00, 0.00, 0.000, 0.000, 0.000, 14:44:34.468
9, -17.99, 48.99, 0.00, 0.00, 0.000, 0.000, 0.000, 14:44:34.483
10, -22.74, 49.48, 0.00, 0.00, 0.000, 0.000, 0.000, 14:44:34.483
11, -24.25, 45.52, 0.00, 0.00, 0.000, 0.000, 0.000, 14:44:34.484
12, -22.84, 53.84, 0.00, 0.00, 0.000, 0.000, 0.000, 14:44:34.484
13, -21.18, 52.26, 0.00, 0.00, 0.000, 0.000, 0.000, 14:44:34.498
14, -20.21, 46.01, 0.00, 0.00, 0.000, 0.000, 0.000, 14:44:34.498
15, -25.03, 43.87, 0.00, 0.00, 0.000, 0.000, 0.000, 14:44:34.513
16, -20.16, 48.36, 0.00, 0.00, 0.000, 0.000, 0.000, 14:44:34.513
17, -19.89, 49.27, 0.00, 0.00, 0.000, 0.000, 0.000, 14:44:34.513
18, -21.80, 49.85, 0.00, 0.00, 0.000, 0.000, 0.000, 14:44:34.513
19, -23.47, 47.84, 0.00, 0.00, 0.000, 0.000, 0.000, 14:44:34.527
20, -22.31, 52.39, 0.00, 0.00, 0.000, 0.000, 0.000, 14:44:34.528
21, -19.04, 50.11, 0.00, 0.00, 0.000, 0.000, 0.000, 14:44:34.543
22, -21.21, 46.90, 0.00, 0.00, 0.000, 0.000, 0.000, 14:44:34.543
23, -25.14, 43.20, 0.00, 0.00, 0.000, 0.000, 0.000, 14:44:34.544
24, -19.85, 47.04, 0.00, 0.00, 0.000, 0.000, 0.000, 14:44:34.544
25, -16.79, 51.32, 0.00, 0.00, 0.000, 0.000, 0.000, 14:44:34.558
26, -21.86, 47.65, 0.00, 0.00, 0.000, 0.000, 0.000, 14:44:34.558
27, -24.28, 50.81, 0.00, 0.00, 0.000, 0.000, 0.000, 14:44:34.573
28, -20.74, 53.56, 0.00, 0.00, 0.000, 0.000, 0.000, 14:44:34.573
29, -18.94, 50.97, 0.00, 0.00, 0.000, 0.000, 0.000, 14:44:34.574
30, -21.31, 48.02, 0.00, 0.00, 0.000, 0.000, 0.000, 14:44:34.574
31, -25.64, 47.62, 0.00, 0.00, 0.000, 0.000, 0.000, 14:44:34.589
32, -20.22, 49.58, 0.00, 0.00, 0.000, 0.000, 0.000, 14:44:34.590
33, -21.41, 49.37, 0.00, 0.00, 0.000, 0.000, 0.000, 14:44:34.604
34, -25.87, 45.45, 0.00, 0.00, 0.000, 0.000, 0.000, 14:44:34.604
35, -25.04, 42.32, 0.00, 0.00, 0.000, 0.000, 0.000, 14:44:34.611
36, -24.86, 44.82, 0.00, 0.00, 0.000, 0.000, 0.000, 14:44:34.611
37, -19.83, 48.98, 0.00, 0.00, 0.000, 0.000, 0.000, 14:44:34.618
38, -24.21, 43.79, 0.00, 0.00, 0.000, 0.000, 0.000, 14:44:34.618
39, -25.79, 40.88, 0.00, 0.00, 0.000, 0.000, 0.000, 14:44:34.633
40, -23.43, 46.73, 0.00, 0.00, 0.000, 0.000, 0.000, 14:44:34.634
41, -22.04, 46.33, 0.00, 0.00, 0.000, 0.000, 0.000, 14:44:34.634
42, -25.31, 47.87, 0.00, 0.00, 0.000, 0.000, 0.000, 14:44:34.634
43, -25.94, 43.64, 0.00, 0.00, 0.000, 0.000, 0.000, 14:44:34.650
44, -21.26, 44.28, 0.00, 0.00, 0.000, 0.000, 0.000, 14:44:34.651
45, -17.50, 45.67, 0.00, 0.00, 0.000, 0.000, 0.000, 14:44:34.662
46, -23.11, 49.14, 0.00, 0.00, 0.000, 0.000, 0.000, 14:44:34.663
47, -26.06, 44.86, 0.00, 0.00, 0.000, 0.000, 0.000, 14:44:34.663
48, -26.50, 46.14, 0.00, 0.00, 0.000, 0.000, 0.000, 14:44:34.663
49, -21.25, 50.38, 0.00, 0.00, 0.000, 0.000, 0.000, 14:44:34.678
50, -23.11, 48.09, 0.00, 0.00, 0.000, 0.000, 0.000, 14:44:34.678
51, -27.51, 44.86, 0.00, 0.00, 0.000, 0.000, 0.000, 14:44:34.692
52, -21.06, 48.32, 0.00, 0.00, 0.000, 0.000, 0.000, 14:44:34.693
53, -20.54, 49.34, 0.00, 0.00, 0.000, 0.000, 0.000, 14:44:34.693
54, -21.38, 52.30, 0.00, 0.00, 0.000, 0.000, 0.000, 14:44:34.693
55, -26.55, 45.07, 0.00, 0.00, 0.000, 0.000, 0.000, 14:44:34.708
56, -22.26, 46.84, 0.00, 0.00, 0.000, 0.000, 0.000, 14:44:34.708
57, -24.28, 48.74, 0.00, 0.00, 0.000, 0.000, 0.000, 14:44:34.723
58, -26.77, 42.69, 0.00, 0.00, 0.000, 0.000, 0.000, 14:44:34.723
59, -23.31, 39.54, 0.00, 0.00, 0.000, 0.000, 0.000, 14:44:34.723
60, -24.37, 40.61, 0.00, 0.00, 0.000, 0.000, 0.000, 14:44:34.724
61, -19.83, 43.68, 0.00, 0.00, 0.000, 0.000, 0.000, 14:44:34.739
62, -22.28, 44.55, 0.00, 0.00, 0.000, 0.000, 0.000, 14:44:34.739
63, -26.50, 44.42, 0.00, 0.00, 0.000, 0.000, 0.000, 14:44:34.753
64, -24.03, 45.18, 0.00, 0.00, 0.000, 0.000, 0.000, 14:44:34.753
65, -22.25, 43.32, 0.00, 0.00, 0.000, 0.000, 0.000, 14:44:34.753
66, -23.85, 48.18, 0.00, 0.00, 0.000, 0.000, 0.000, 14:44:34.753
67, -28.29, 48.58, 0.00, 0.00, 0.000, 0.000, 0.000, 14:44:34.768
68, -23.42, 47.24, 0.00, 0.00, 0.000, 0.000, 0.000, 14:44:34.768
69, -22.79, 51.36, 0.00, 0.00, 0.000, 0.000, 0.000, 14:44:34.783
70, -27.49, 44.85, 0.00, 0.00, 0.000, 0.000, 0.000, 14:44:34.783
71, -27.89, 40.19, 0.00, 0.00, 0.000, 0.000, 0.000, 14:44:34.783
72, -24.30, 44.04, 0.00, 0.00, 0.000, 0.000, 0.000, 14:44:34.783
73, -25.11, 44.20, 0.00, 0.00, 0.000, 0.000, 0.000, 14:44:34.798
74, -26.29, 44.50, 0.00, 0.00, 0.000, 0.000, 0.000, 14:44:34.798
75, -24.32, 39.08, 0.00, 0.00, 0.000, 0.000, 0.000, 14:44:34.813
76, -26.53, 42.44, 0.00, 0.00, 0.000, 0.000, 0.000, 14:44:34.813
77, -24.87, 48.58, 0.00, 0.00, 0.000, 0.000, 0.000, 14:44:34.813
78, -26.76, 48.47, 0.00, 0.00, 0.000, 0.000, 0.000, 14:44:34.813
79, -28.47, 41.03, 0.00, 0.00, 0.000, 0.000, 0.000, 14:44:34.827
80, -24.66, 40.54, 0.00, 0.00, 0.000, 0.000, 0.000, 14:44:34.829
81, -24.06, 47.31, 0.00, 0.00, 0.000, 0.000, 0.000, 14:44:34.843
82, -26.22, 48.02, 0.00, 0.00, 0.000, 0.000, 0.000, 14:44:34.843
83, -29.92, 43.80, 0.00, 0.00, 0.000, 0.000, 0.000, 14:44:34.843
84, -27.31, 50.05, 0.00, 0.00, 0.000, 0.000, 0.000, 14:44:34.843
85, -28.09, 53.43, 0.00, 0.00, 0.000, 0.000, 0.000, 14:44:34.858
86, -24.84, 44.69, 0.00, 0.00, 0.000, 0.000, 0.000, 14:44:34.859
87, -23.58, 40.41, 0.00, 0.00, 0.000, 0.000, 0.000, 14:44:34.874
88, -26.68, 41.98, 0.00, 0.00, 0.000, 0.000, 0.000, 14:44:34.874
89, -25.45, 47.52, 0.00, 0.00, 0.000, 0.000, 0.000, 14:44:34.874
90, -28.53, 44.11, 0.00, 0.00, 0.000, 0.000, 0.000, 14:44:34.875
91, -29.69, 42.67, 0.00, 0.00, 0.000, 0.000, 0.000, 14:44:34.889
92, -25.72, 50.77, 0.00, 0.00, 0.000, 0.000, 0.000, 14:44:34.889
93, -23.24, 53.96, 0.00, 0.00, 0.000, 0.000, 0.000, 14:44:34.903
94, -25.11, 51.06, 0.00, 0.00, 0.000, 0.000, 0.000, 14:44:34.903
95, -27.61, 45.90, 0.00, 0.00, 0.000, 0.000, 0.000, 14:44:34.903
96, -25.95, 42.52, 0.00, 0.00, 0.000, 0.000, 0.000, 14:44:34.903
97, -24.71, 52.17, 0.00, 0.00, 0.000, 0.000, 0.000, 14:44:34.918
98, -24.32, 47.48, 0.00, 0.00, 0.000, 0.000, 0.000, 14:44:34.918
99, -30.01, 45.94, 0.00, 0.00, 0.000, 0.000, 0.000, 14:44:34.933
100, -28.57, 49.45, 0.00, 0.00, 0.000, 0.000, 0.000, 14:44:34.933
101, -26.55, 51.88, 0.00, 0.00, 0.000, 0.000, 0.000, 14:44:34.933
102, -32.78, 47.19, 0.00, 0.00, 0.000, 0.000, 0.000, 14:44:34.933
103, -29.40, 46.03, 0.00, 0.00, 0.000, 0.000, 0.000, 14:44:34.948
104, -28.68, 51.02, 0.00, 0.00, 0.000, 0.000, 0.000, 14:44:34.948
105, -27.74, 54.02, 0.00, 0.00, 0.000, 0.000, 0.000, 14:44:34.963
106, -29.18, 46.98, 0.00, 0.00, 0.000, 0.000, 0.000, 14:44:34.963
107, -29.71, 45.31, 0.00, 0.00, 0.000, 0.000, 0.000, 14:44:34.964
108, -28.24, 47.28, 0.00, 0.00, 0.000, 0.000, 0.000, 14:44:34.964
109, -24.34, 53.53, 0.00, 0.00, 0.000, 0.000, 0.000, 14:44:34.978
110, -27.90, 48.73, 0.00, 0.00, 0.000, 0.000, 0.000, 14:44:34.978
111, -33.14, 46.64, 0.00, 0.00, 0.000, 0.000, 0.000, 14:44:34.994
112, -28.64, 49.94, 0.00, 0.00, 0.000, 0.000, 0.000, 14:44:34.994
113, -28.31, 50.03, 0.00, 0.00, 0.000, 0.000, 0.000, 14:44:34.995
114, -33.31, 48.14, 0.00, 0.00, 0.000, 0.000, 0.000, 14:44:34.995
115, -28.91, 44.21, 0.00, 0.00, 0.000, 0.000, 0.000, 14:44:35.008
116, -31.33, 47.56, 0.00, 0.00, 0.000, 0.000, 0.000, 14:44:35.008
117, -26.36, 55.31, 0.00, 0.00, 0.000, 0.000, 0.000, 14:44:35.023
118, -30.85, 51.70, 0.00, 0.00, 0.000, 0.000, 0.000, 14:44:35.023
119, -34.75, 47.63, 0.00, 0.00, 0.000, 0.000, 0.000, 14:44:35.024
120, -28.88, 51.08, 0.00, 0.00, 0.000, 0.000, 0.000, 14:44:35.024
121, -27.73, 52.68, 0.00, 0.00, 0.000, 0.000, 0.000, 14:44:35.038
122, -29.19, 46.69, 0.00, 0.00, 0.000, 0.000, 0.000, 14:44:35.038
123, -29.27, 47.04, 0.00, 0.00, 0.000, 0.000, 0.000, 14:44:35.054
124, -29.28, 49.00, 0.00, 0.00, 0.000, 0.000, 0.000, 14:44:35.054
125, -28.57, 53.45, 0.00, 0.00, 0.000, 0.000, 0.000, 14:44:35.054
126, -28.54, 47.00, 0.00, 0.00, 0.000, 0.000, 0.000, 14:44:35.054
127, -27.85, 45.74, 0.00, 0.00, 0.000, 0.000, 0.000, 14:44:35.069
128, -30.78, 48.24, 0.00, 0.00, 0.000, 0.000, 0.000, 14:44:35.069
129, -27.63, 52.10, 0.00, 0.00, 0.000, 0.000, 0.000, 14:44:35.083
130, -30.98, 49.25, 0.00, 0.00, 0.000, 0.000, 0.000, 14:44:35.084
131, -30.62, 47.95, 0.00, 0.00, 0.000, 0.000, 0.000, 14:44:35.084
132, -29.77, 52.16, 0.00, 0.00, 0.000, 0.000, 0.000, 14:44:35.084
133, -29.34, 54.01, 0.00, 0.00, 0.000, 0.000, 0.000, 14:44:35.098
134, -27.90, 50.81, 0.00, 0.00, 0.000, 0.000, 0.000, 14:44:35.098
135, -29.11, 50.92, 0.00, 0.00, 0.000, 0.000, 0.000, 14:44:35.114
136, -26.92, 50.78, 0.00, 0.00, 0.000, 0.000, 0.000, 14:44:35.114
137, -25.21, 50.30, 0.00, 0.00, 0.000, 0.000, 0.000, 14:44:35.114
138, -26.32, 47.92, 0.00, 0.00, 0.000, 0.000, 0.000, 14:44:35.114
139, -28.37, 46.95, 0.00, 0.00, 0.000, 0.000, 0.000, 14:44:35.128
140, -27.87, 47.06, 0.00, 0.00, 0.000, 0.000, 0.000, 14:44:35.128
141, -28.60, 50.57, 0.00, 0.00, 0.000, 0.000, 0.000, 14:44:35.143
142, -27.19, 48.04, 0.00, 0.00, 0.000, 0.000, 0.000, 14:44:35.143
143, -28.96, 45.24, 0.00, 0.00, 0.000, 0.000, 0.000, 14:44:35.143
144, -25.39, 49.88, 0.00, 0.00, 0.000, 0.000, 0.000, 14:44:35.144
145, -27.68, 52.82, 0.00, 0.00, 0.000, 0.000, 0.000, 14:44:35.158
146, -27.43, 49.08, 0.00, 0.00, 0.000, 0.000, 0.000, 14:44:35.159
147, -28.85, 44.34, 0.00, 0.00, 0.000, 0.000, 0.000, 14:44:35.173
148, -26.61, 47.70, 0.00, 0.00, 0.000, 0.000, 0.000, 14:44:35.174
149, -29.40, 54.10, 0.00, 0.00, 0.000, 0.000, 0.000, 14:44:35.174
150, -24.75, 52.13, 0.00, 0.00, 0.000, 0.000, 0.000, 14:44:35.174
151, -29.71, 47.36, 0.00, 0.00, 0.000, 0.000, 0.000, 14:44:35.188
152, -26.51, 52.91, 0.00, 0.00, 0.000, 0.000, 0.000, 14:44:35.188
153, -25.60, 55.08, 0.00, 0.00, 0.000, 0.000, 0.000, 14:44:35.204
154, -27.69, 53.75, 0.00, 0.00, 0.000, 0.000, 0.000, 14:44:35.204
155, -27.51, 49.48, 0.00, 0.00, 0.000, 0.000, 0.000, 14:44:35.204
156, -27.05, 53.49, 0.00, 0.00, 0.000, 0.000, 0.000, 14:44:35.205
157, -26.90, 54.65, 0.00, 0.00, 0.000, 0.000, 0.000, 14:44:35.218
158, -27.75, 45.85, 0.00, 0.00, 0.000, 0.000, 0.000, 14:44:35.219
159, -31.06, 49.59, 0.00, 0.00, 0.000, 0.000, 0.000, 14:44:35.233
160, -26.36, 52.61, 0.00, 0.00, 0.000, 0.000, 0.000, 14:44:35.233
161, -28.68, 51.92, 0.00, 0.00, 0.000, 0.000, 0.000, 14:44:35.234
162, -24.72, 47.34, 0.00, 0.00, 0.000, 0.000, 0.000, 14:44:35.234
163, -33.40, 43.89, 0.00, 0.00, 0.000, 0.000, 0.000, 14:44:35.248
164, -31.16, 47.82, 0.00, 0.00, 0.000, 0.000, 0.000, 14:44:35.248
165, -31.50, 57.38, 0.00, 0.00, 0.000, 0.000, 0.000, 14:44:35.263
166, -28.29, 51.07, 0.00, 0.00, 0.000, 0.000, 0.000, 14:44:35.263
167, -31.96, 46.37, 0.00, 0.00, 0.000, 0.000, 0.000, 14:44:35.264
168, -30.13, 50.57, 0.00, 0.00, 0.000, 0.000, 0.000, 14:44:35.264
169, -27.39, 54.39, 0.00, 0.00, 0.000, 0.000, 0.000, 14:44:35.278
170, -29.35, 45.73, 0.00, 0.00, 0.000, 0.000, 0.000, 14:44:35.279
171, -30.10, 40.32, 0.00, 0.00, 0.000, 0.000, 0.000, 14:44:35.293
172, -25.07, 46.59, 0.00, 0.00, 0.000, 0.000, 0.000, 14:44:35.293
173, -25.24, 54.42, 0.00, 0.00, 0.000, 0.000, 0.000, 14:44:35.294
174, -28.87, 51.00, 0.00, 0.00, 0.000, 0.000, 0.000, 14:44:35.294
175, -33.00, 49.69, 0.00, 0.00, 0.000, 0.000, 0.000, 14:44:35.309
176, -30.64, 49.42, 0.00, 0.00, 0.000, 0.000, 0.000, 14:44:35.309
177, -30.56, 51.67, 0.00, 0.00, 0.000, 0.000, 0.000, 14:44:35.323
178, -28.48, 49.61, 0.00, 0.00, 0.000, 0.000, 0.000, 14:44:35.323
179, -29.33, 47.03, 0.00, 0.00, 0.000, 0.000, 0.000, 14:44:35.324
180, -27.98, 47.03, 0.00, 0.00, 0.000, 0.000, 0.000, 14:44:35.324
181, -26.43, 49.09, 0.00, 0.00, 0.000, 0.000, 0.000, 14:44:35.338
182, -28.89, 49.28, 0.00, 0.00, 0.000, 0.000, 0.000, 14:44:35.339
183, -31.80, 47.05, 0.00, 0.00, 0.000, 0.000, 0.000, 14:44:35.353
184, -29.99, 51.65, 0.00, 0.00, 0.000, 0.000, 0.000, 14:44:35.353
185, -28.88, 54.04, 0.00, 0.00, 0.000, 0.000, 0.000, 14:44:35.353
186, -30.03, 45.35, 0.00, 0.00, 0.000, 0.000, 0.000, 14:44:35.353
187, -33.17, 45.55, 0.00, 0.00, 0.000, 0.000, 0.000, 14:44:35.368
188, -31.05, 51.34, 0.00, 0.00, 0.000, 0.000, 0.000, 14:44:35.369
189, -30.83, 47.82, 0.00, 0.00, 0.000, 0.000, 0.000, 14:44:35.384
190, -29.99, 45.69, 0.00, 0.00, 0.000, 0.000, 0.000, 14:44:35.384
191, -31.67, 48.45, 0.00, 0.00, 0.000, 0.000, 0.000, 14:44:35.384
192, -31.73, 53.09, 0.00, 0.00, 0.000, 0.000, 0.000, 14:44:35.384
193, -28.08, 49.53, 0.00, 0.00, 0.000, 0.000, 0.000, 14:44:35.397
194, -31.59, 45.34, 0.00, 0.00, 0.000, 0.000, 0.000, 14:44:35.398
195, -33.15, 48.21, 0.00, 0.00, 0.000, 0.000, 0.000, 14:44:35.414
196, -32.05, 54.27, 0.00, 0.00, 0.000, 0.000, 0.000, 14:44:35.414
197, -30.12, 50.82, 0.00, 0.00, 0.000, 0.000, 0.000, 14:44:35.414
198, -31.68, 52.78, 0.00, 0.00, 0.000, 0.000, 0.000, 14:44:35.414
199, -33.86, 47.81, 0.00, 0.00, 0.000, 0.000, 0.000, 14:44:35.428
200, -32.91, 44.62, 0.00, 0.00, 0.000, 0.000, 0.000, 14:44:35.428
0, -30.02, 52.27, 0.00, 0.00, 0.000, 0.000, 0.000, 14:44:35.436
1, -32.03, 46.13, 0.00, 0.00, 0.000, 0.000, 0.000, 14:44:35.444
2, -35.74, 45.14, 0.00, 0.00, 0.000, 0.000, 0.000, 14:44:35.444
3, -30.29, 48.22, 0.00, 0.00, 0.000, 0.000, 0.000, 14:44:35.458
4, -28.23, 49.70, 0.00, 0.00, 0.000, 0.000, 0.000, 14:44:35.459
5, -33.40, 48.14, 0.00, 0.00, 0.000, 0.000, 0.000, 14:44:35.460
6, -29.83, 44.08, 0.00, 0.00, 0.000, 0.000, 0.000, 14:44:35.461
7, -28.31, 43.73, 0.00, 0.00, 0.000, 0.000, 0.000, 14:44:35.474
8, -27.01, 50.69, 0.00, 0.00, 0.000, 0.000, 0.000, 14:44:35.474
9, -29.41, 49.82, 0.00, 0.00, 0.000, 0.000, 0.000, 14:44:35.489
10, -35.35, 49.95, 0.00, 0.00, 0.000, 0.000, 0.000, 14:44:35.489
11, -30.77, 48.64, 0.00, 0.00, 0.000, 0.000, 0.000, 14:44:35.489
12, -30.94, 47.82, 0.00, 0.00, 0.000, 0.000, 0.000, 14:44:35.489
13, -28.98, 46.35, 0.00, 0.00, 0.000, 0.000, 0.000, 14:44:35.503
14, -32.65, 49.81, 0.00, 0.00, 0.000, 0.000, 0.000, 14:44:35.503
15, -30.12, 54.67, 0.00, 0.00, 0.000, 0.000, 0.000, 14:44:35.519
16, -30.93, 51.36, 0.00, 0.00, 0.000, 0.000, 0.000, 14:44:35.520
17, -31.23, 47.23, 0.00, 0.00, 0.000, 0.000, 0.000, 14:44:35.520
18, -33.12, 43.65, 0.00, 0.00, 0.000, 0.000, 0.000, 14:44:35.520
19, -30.83, 51.34, 0.00, 0.00, 0.000, 0.000, 0.000, 14:44:35.534
20, -27.11, 53.48, 0.00, 0.00, 0.000, 0.000, 0.000, 14:44:35.534
21, -33.20, 48.76, 0.00, 0.00, 0.000, 0.000, 0.000, 14:44:35.550
22, -32.11, 51.76, 0.00, 0.00, 0.000, 0.000, 0.000, 14:44:35.551
23, -31.30, 52.71, 0.00, 0.00, 0.000, 0.000, 0.000, 14:44:35.552
24, -28.66, 49.76, 0.00, 0.00, 0.000, 0.000, 0.000, 14:44:35.552
25, -31.63, 51.40, 0.00, 0.00, 0.000, 0.000, 0.000, 14:44:35.563
26, -32.37, 48.98, 0.00, 0.00, 0.000, 0.000, 0.000, 14:44:35.563
27, -32.30, 53.10, 0.00, 0.00, 0.000, 0.000, 0.000, 14:44:35.578
28, -27.27, 52.71, 0.00, 0.00, 0.000, 0.000, 0.000, 14:44:35.579
29, -30.64, 51.52, 0.00, 0.00, 0.000, 0.000, 0.000, 14:44:35.579
30, -32.64, 50.91, 0.00, 0.00, 0.000, 0.000, 0.000, 14:44:35.579
31, -29.68, 51.32, 0.00, 0.00, 0.000, 0.000, 0.000, 14:44:35.593
32, -25.93, 51.09, 0.00, 0.00, 0.000, 0.000, 0.000, 14:44:35.593
33, -27.84, 47.48, 0.00, 0.00, 0.000, 0.000, 0.000, 14:44:35.608
34, -28.45, 46.37, 0.00, 0.00, 0.000, 0.000, 0.000, 14:44:35.608
35, -28.99, 45.54, 0.00, 0.00, 0.000, 0.000, 0.000, 14:44:35.609
36, -27.23, 50.51, 0.00, 0.00, 0.000, 0.000, 0.000, 14:44:35.609
37, -28.36, 48.93, 0.00, 0.00, 0.000, 0.000, 0.000, 14:44:35.623
38, -28.33, 45.44, 0.00, 0.00, 0.000, 0.000, 0.000, 14:44:35.623
39, -26.74, 48.32, 0.00, 0.00, 0.000, 0.000, 0.000, 14:44:35.638
40, -25.69, 52.42, 0.00, 0.00, 0.000, 0.000, 0.000, 14:44:35.638
41, -27.33, 47.63, 0.00, 0.00, 0.000, 0.000, 0.000, 14:44:35.638
42, -29.55, 49.41, 0.00, 0.00, 0.000, 0.000, 0.000, 14:44:35.639
43, -27.12, 51.87, 0.00, 0.00, 0.000, 0.000, 0.000, 14:44:35.655
44, -29.26, 51.50, 0.00, 0.00, 0.000, 0.000, 0.000, 14:44:35.656
45, -30.18, 47.43, 0.00, 0.00, 0.000, 0.000, 0.000, 14:44:35.669
46, -29.91, 48.94, 0.00, 0.00, 0.000, 0.000, 0.000, 14:44:35.670
47, -27.82, 48.70, 0.00, 0.00, 0.000, 0.000, 0.000, 14:44:35.670
48, -24.31, 50.87, 0.00, 0.00, 0.000, 0.000, 0.000, 14:44:35.670
49, -27.81, 49.71, 0.00, 0.00, 0.000, 0.000, 0.000, 14:44:35.683
50, -29.86, 42.68, 0.00, 0.00, 0.000, 0.000, 0.000, 14:44:35.683
51, -23.67, 51.02, 0.00, 0.00, 0.000, 0.000, 0.000, 14:44:35.698
52, -24.19, 49.22, 0.00, 0.00, 0.000, 0.000, 0.000, 14:44:35.698
53, -27.84, 47.16, 0.00, 0.00, 0.000, 0.000, 0.000, 14:44:35.698
54, -30.13, 46.86, 0.00, 0.00, 0.000, 0.000, 0.000, 14:44:35.698
55, -27.44, 49.56, 0.00, 0.00, 0.000, 0.000, 0.000, 14:44:35.720
56, -28.77, 49.92, 0.00, 0.00, 0.000, 0.000, 0.000, 14:44:35.720
57, -28.86, 51.14, 0.00, 0.00, 0.000, 0.000, 0.000, 14:44:35.728
58, -30.78, 49.27, 0.00, 0.00, 0.000, 0.000, 0.000, 14:44:35.728
59, -26.57, 51.09, 0.00, 0.00, 0.000, 0.000, 0.000, 14:44:35.728
60, -25.12, 50.42, 0.00, 0.00, 0.000, 0.000, 0.000, 14:44:35.729
61, -25.47, 48.64, 0.00, 0.00, 0.000, 0.000, 0.000, 14:44:35.744
62, -25.85, 45.51, 0.00, 0.00, 0.000, 0.000, 0.000, 14:44:35.744
63, -28.55, 48.36, 0.00, 0.00, 0.000, 0.000, 0.000, 14:44:35.758
64, -27.27, 52.43, 0.00, 0.00, 0.000, 0.000, 0.000, 14:44:35.759
65, -28.46, 49.18, 0.00, 0.00, 0.000, 0.000, 0.000, 14:44:35.759
66, -29.51, 47.93, 0.00, 0.00, 0.000, 0.000, 0.000, 14:44:35.760
67, -26.99, 49.01, 0.00, 0.00, 0.000, 0.000, 0.000, 14:44:35.773
68, -27.07, 56.03, 0.00, 0.00, 0.000, 0.000, 0.000, 14:44:35.774
69, -33.78, 51.82, 0.00, 0.00, 0.000, 0.000, 0.000, 14:44:35.790
70, -30.19, 52.37, 0.00, 0.00, 0.000, 0.000, 0.000, 14:44:35.791
71, -29.66, 53.27, 0.00, 0.00, 0.000, 0.000, 0.000, 14:44:35.791
72, -26.09, 55.01, 0.00, 0.00, 0.000, 0.000, 0.000, 14:44:35.791
73, -27.08, 50.22, 0.00, 0.00, 0.000, 0.000, 0.000, 14:44:35.803
74, -28.83, 47.29, 0.00, 0.00, 0.000, 0.000, 0.000, 14:44:35.803
75, -25.57, 51.13, 0.00, 0.00, 0.000, 0.000, 0.000, 14:44:35.819
76, -26.51, 52.54, 0.00, 0.00, 0.000, 0.000, 0.000, 14:44:35.819
77, -26.19, 48.32, 0.00, 0.00, 0.000, 0.000, 0.000, 14:44:35.819
78, -28.31, 42.79, 0.00, 0.00, 0.000, 0.000, 0.000, 14:44:35.819
79, -25.80, 50.56, 0.00, 0.00, 0.000, 0.000, 0.000, 14:44:35.833
80, -25.99, 49.22, 0.00, 0.00, 0.000, 0.000, 0.000, 14:44:35.833
81, -27.87, 51.64, 0.00, 0.00, 0.000, 0.000, 0.000, 14:44:35.848
82, -28.11, 52.92, 0.00, 0.00, 0.000, 0.000, 0.000, 14:44:35.848
83, -27.96, 51.90, 0.00, 0.00, 0.000, 0.000, 0.000, 14:44:35.848
84, -27.77, 53.67, 0.00, 0.00, 0.000, 0.000, 0.000, 14:44:35.848
85, -27.02, 49.86, 0.00, 0.00, 0.000, 0.000, 0.000, 14:44:35.863
86, -29.06, 44.37, 0.00, 0.00, 0.000, 0.000, 0.000, 14:44:35.863
87, -26.36, 47.39, 0.00, 0.00, 0.000, 0.000, 0.000, 14:44:35.878
88, -29.84, 56.03, 0.00, 0.00, 0.000, 0.000, 0.000, 14:44:35.878
89, -25.40, 49.56, 0.00, 0.00, 0.000, 0.000, 0.000, 14:44:35.878
90, -28.45, 49.06, 0.00, 0.00, 0.000, 0.000, 0.000, 14:44:35.878
91, -28.02, 50.72, 0.00, 0.00, 0.000, 0.000, 0.000, 14:44:35.893
92, -26.16, 50.56, 0.00, 0.00, 0.000, 0.000, 0.000, 14:44:35.894
93, -27.74, 51.21, 0.00, 0.00, 0.000, 0.000, 0.000, 14:44:35.908
94, -27.99, 46.01, 0.00, 0.00, 0.000, 0.000, 0.000, 14:44:35.908
95, -26.37, 46.75, 0.00, 0.00, 0.000, 0.000, 0.000, 14:44:35.909
96, -27.76, 53.99, 0.00, 0.00, 0.000, 0.000, 0.000, 14:44:35.909
97, -26.93, 48.78, 0.00, 0.00, 0.000, 0.000, 0.000, 14:44:35.924
98, -27.74, 48.59, 0.00, 0.00, 0.000, 0.000, 0.000, 14:44:35.924
99, -26.56, 53.54, 0.00, 0.00, 0.000, 0.000, 0.000, 14:44:35.938
100, -27.78, 57.41, 0.00, 0.00, 0.000, 0.000, 0.000, 14:44:35.938
101, -25.87, 46.90, 0.00, 0.00, 0.000, 0.000, 0.000, 14:44:35.939
102, -27.10, 42.28, 0.00, 0.00, 0.000, 0.000, 0.000, 14:44:35.939
103, -26.13, 45.44, 0.00, 0.00, 0.000, 0.000, 0.000, 14:44:35.953
104, -25.88, 49.85, 0.00, 0.00, 0.000, 0.000, 0.000, 14:44:35.953
105, -24.98, 50.60, 0.00, 0.00, 0.000, 0.000, 0.000, 14:44:35.968
106, -26.95, 47.65, 0.00, 0.00, 0.000, 0.000, 0.000, 14:44:35.969
107, -24.58, 51.87, 0.00, 0.00, 0.000, 0.000, 0.000, 14:44:35.969
108, -23.91, 52.64, 0.00, 0.00, 0.000, 0.000, 0.000, 14:44:35.970
109, -25.47, 46.35, 0.00, 0.00, 0.000, 0.000, 0.000, 14:44:35.983
110, -26.46, 42.95, 0.00, 0.00, 0.000, 0.000, 0.000, 14:44:35.983
111, -26.63, 51.15, 0.00, 0.00, 0.000, 0.000, 0.000, 14:44:35.998
112, -27.77, 52.26, 0.00, 0.00, 0.000, 0.000, 0.000, 14:44:35.998
113, -26.24, 45.62, 0.00, 0.00, 0.000, 0.000, 0.000, 14:44:35.998
114, -28.87, 44.72, 0.00, 0.00, 0.000, 0.000, 0.000, 14:44:35.998
115, -24.31, 41.13, 0.00, 0.00, 0.000, 0.000, 0.000, 14:44:36.014
116, -25.05, 49.38, 0.00, 0.00, 0.000, 0.000, 0.000, 14:44:36.014
117, -27.27, 48.29, 0.00, 0.00, 0.000, 0.000, 0.000, 14:44:36.029
118, -29.26, 44.84, 0.00, 0.00, 0.000, 0.000, 0.000, 14:44:36.029
119, -28.56, 50.34, 0.00, 0.00, 0.000, 0.000, 0.000, 14:44:36.029
120, -25.51, 50.49, 0.00, 0.00, 0.000, 0.000, 0.000, 14:44:36.029
121, -27.67, 47.88, 0.00, 0.00, 0.000, 0.000, 0.000, 14:44:36.044
122, -27.97, 43.90, 0.00, 0.00, 0.000, 0.000, 0.000, 14:44:36.046
123, -28.02, 49.39, 0.00, 0.00, 0.000, 0.000, 0.000, 14:44:36.058
124, -27.31, 53.47, 0.00, 0.00, 0.000, 0.000, 0.000, 14:44:36.058
125, -26.46, 46.28, 0.00, 0.00, 0.000, 0.000, 0.000, 14:44:36.058
126, -29.32, 44.38, 0.00, 0.00, 0.000, 0.000, 0.000, 14:44:36.058
127, -27.50, 49.25, 0.00, 0.00, 0.000, 0.000, 0.000, 14:44:36.073
128, -24.30, 49.77, 0.00, 0.00, 0.000, 0.000, 0.000, 14:44:36.074
129, -25.26, 49.62, 0.00, 0.00, 0.000, 0.000, 0.000, 14:44:36.088
130, -26.75, 46.24, 0.00, 0.00, 0.000, 0.000, 0.000, 14:44:36.088
131, -26.51, 46.15, 0.00, 0.00, 0.000, 0.000, 0.000, 14:44:36.088
132, -27.70, 54.25, 0.00, 0.00, 0.000, 0.000, 0.000, 14:44:36.088
133, -23.76, 47.93, 0.00, 0.00, 0.000, 0.000, 0.000, 14:44:36.102
134, -25.94, 40.70, 0.00, 0.00, 0.000, 0.000, 0.000, 14:44:36.103
135, -24.92, 50.08, 0.00, 0.00, 0.000, 0.000, 0.000, 14:44:36.118
136, -27.03, 50.15, 0.00, 0.00, 0.000, 0.000, 0.000, 14:44:36.118
137, -26.87, 45.74, 0.00, 0.00, 0.000, 0.000, 0.000, 14:44:36.118
138, -27.49, 44.92, 0.00, 0.00, 0.000, 0.000, 0.000, 14:44:36.119
139, -23.97, 44.92, 0.00, 0.00, 0.000, 0.000, 0.000, 14:44:36.133
140, -23.70, 49.98, 0.00, 0.00, 0.000, 0.000, 0.000, 14:44:36.133
141, -28.62, 47.78, 0.00, 0.00, 0.000, 0.000, 0.000, 14:44:36.148
142, -30.48, 45.74, 0.00, 0.00, 0.000, 0.000, 0.000, 14:44:36.148
143, -27.00, 48.72, 0.00, 0.00, 0.000, 0.000, 0.000, 14:44:36.148
144, -24.88, 52.30, 0.00, 0.00, 0.000, 0.000, 0.000, 14:44:36.148
145, -27.59, 46.43, 0.00, 0.00, 0.000, 0.000, 0.000, 14:44:36.163
146, -26.72, 43.84, 0.00, 0.00, 0.000, 0.000, 0.000, 14:44:36.163
147, -27.56, 48.91, 0.00, 0.00, 0.000, 0.000, 0.000, 14:44:36.178
148, -27.30, 51.05, 0.00, 0.00, 0.000, 0.000, 0.000, 14:44:36.178
149, -27.71, 45.49, 0.00, 0.00, 0.000, 0.000, 0.000, 14:44:36.178
150, -27.56, 41.01, 0.00, 0.00, 0.000, 0.000, 0.000, 14:44:36.178
151, -28.34, 40.98, 0.00, 0.00, 0.000, 0.000, 0.000, 14:44:36.199
152, -24.80, 43.51, 0.00, 0.00, 0.000, 0.000, 0.000, 14:44:36.199
153, -28.76, 41.76, 0.00, 0.00, 0.000, 0.000, 0.000, 14:44:36.209
154, -28.53, 44.25, 0.00, 0.00, 0.000, 0.000, 0.000, 14:44:36.209
155, -26.43, 46.82, 0.00, 0.00, 0.000, 0.000, 0.000, 14:44:36.209
156, -25.01, 48.44, 0.00, 0.00, 0.000, 0.000, 0.000, 14:44:36.209
157, -28.26, 48.88, 0.00, 0.00, 0.000, 0.000, 0.000, 14:44:36.223
158, -26.95, 43.60, 0.00, 0.00, 0.000, 0.000, 0.000, 14:44:36.224
159, -27.63, 42.13, 0.00, 0.00, 0.000, 0.000, 0.000, 14:44:36.238
160, -22.98, 44.59, 0.00, 0.00, 0.000, 0.000, 0.000, 14:44:36.238
161, -26.10, 46.65, 0.00, 0.00, 0.000, 0.000, 0.000, 14:44:36.239
162, -26.69, 42.59, 0.00, 0.00, 0.000, 0.000, 0.000, 14:44:36.239
163, -25.06, 41.88, 0.00, 0.00, 0.000, 0.000, 0.000, 14:44:36.253
164, -24.64, 48.87, 0.00, 0.00, 0.000, 0.000, 0.000, 14:44:36.253
165, -28.59, 46.31, 0.00, 0.00, 0.000, 0.000, 0.000, 14:44:36.268
166, -28.45, 49.91, 0.00, 0.00, 0.000, 0.000, 0.000, 14:44:36.269
167, -25.94, 50.20, 0.00, 0.00, 0.000, 0.000, 0.000, 14:44:36.269
168, -26.51, 52.68, 0.00, 0.00, 0.000, 0.000, 0.000, 14:44:36.269
169, -30.46, 45.53, 0.00, 0.00, 0.000, 0.000, 0.000, 14:44:36.284
170, -31.81, 39.17, 0.00, 0.00, 0.000, 0.000, 0.000, 14:44:36.284
171, -26.30, 40.28, 0.00, 0.00, 0.000, 0.000, 0.000, 14:44:36.298
172, -26.18, 45.26, 0.00, 0.00, 0.000, 0.000, 0.000, 14:44:36.298
173, -27.25, 38.20, 0.00, 0.00, 0.000, 0.000, 0.000, 14:44:36.299
174, -28.25, 40.19, 0.00, 0.00, 0.000, 0.000, 0.000, 14:44:36.299
175, -24.78, 43.21, 0.00, 0.00, 0.000, 0.000, 0.000, 14:44:36.315
176, -25.76, 48.03, 0.00, 0.00, 0.000, 0.000, 0.000, 14:44:36.315
177, -30.17, 46.78, 0.00, 0.00, 0.000, 0.000, 0.000, 14:44:36.329
178, -32.77, 43.61, 0.00, 0.00, 0.000, 0.000, 0.000, 14:44:36.329
179, -26.69, 50.70, 0.00, 0.00, 0.000, 0.000, 0.000, 14:44:36.330
180, -28.19, 48.41, 0.00, 0.00, 0.000, 0.000, 0.000, 14:44:36.330
181, -30.52, 52.03, 0.00, 0.00, 0.000, 0.000, 0.000, 14:44:36.344
182, -30.89, 43.69, 0.00, 0.00, 0.000, 0.000, 0.000, 14:44:36.344
183, -28.40, 45.73, 0.00, 0.00, 0.000, 0.000, 0.000, 14:44:36.358
184, -28.61, 48.28, 0.00, 0.00, 0.000, 0.000, 0.000, 14:44:36.358
185, -28.70, 41.89, 0.00, 0.00, 0.000, 0.000, 0.000, 14:44:36.358
186, -29.23, 40.19, 0.00, 0.00, 0.000, 0.000, 0.000, 14:44:36.358
187, -26.00, 44.83, 0.00, 0.00, 0.000, 0.000, 0.000, 14:44:36.373
188, -27.02, 47.40, 0.00, 0.00, 0.000, 0.000, 0.000, 14:44:36.373
189, -27.42, 44.36, 0.00, 0.00, 0.000, 0.000, 0.000, 14:44:36.389
190, -31.58, 48.43, 0.00, 0.00, 0.000, 0.000, 0.000, 14:44:36.389
191, -30.55, 50.28, 0.00, 0.00, 0.000, 0.000, 0.000, 14:44:36.389
192, -25.68, 52.52, 0.00, 0.00, 0.000, 0.000, 0.000, 14:44:36.389
193, -29.42, 44.03, 0.00, 0.00, 0.000, 0.000, 0.000, 14:44:36.403
194, -28.06, 41.54, 0.00, 0.00, 0.000, 0.000, 0.000, 14:44:36.403
195, -28.88, 48.85, 0.00, 0.00, 0.000, 0.000, 0.000, 14:44:36.418
196, -27.45, 47.21, 0.00, 0.00, 0.000, 0.000, 0.000, 14:44:36.418
197, -29.67, 44.38, 0.00, 0.00, 0.000, 0.000, 0.000, 14:44:36.419
198, -27.53, 43.86, 0.00, 0.00, 0.000, 0.000, 0.000, 14:44:36.419
199, -28.81, 43.51, 0.00, 0.00, 0.000, 0.000, 0.000, 14:44:36.433
200, -26.94, 46.48, 0.00, 0.00, 0.000, 0.000, 0.000, 14:44:36.434
0, -30.72, 47.07, 0.00, 0.00, 0.000, 0.000, 0.000, 14:44:36.434
1, -33.60, 44.85, 0.00, 0.00, 0.000, 0.000, 0.000, 14:44:36.448
2, -29.38, 51.97, 0.00, 0.00, 0.000, 0.000, 0.000, 14:44:36.449
3, -27.02, 50.31, 0.00, 0.00, 0.000, 0.000, 0.000, 14:44:36.463
4, -27.42, 49.79, 0.00, 0.00, 0.000, 0.000, 0.000, 14:44:36.463
5, -28.03, 46.11, 0.00, 0.00, 0.000, 0.000, 0.000, 14:44:36.464
6, -28.98, 49.12, 0.00, 0.00, 0.000, 0.000, 0.000, 14:44:36.464
7, -29.42, 49.04, 0.00, 0.00, 0.000, 0.000, 0.000, 14:44:36.479
8, -32.88, 46.77, 0.00, 0.00, 0.000, 0.000, 0.000, 14:44:36.479
9, -30.09, 46.34, 0.00, 0.00, 0.000, 0.000, 0.000, 14:44:36.493
10, -27.01, 51.49, 0.00, 0.00, 0.000, 0.000, 0.000, 14:44:36.493
11, -26.40, 46.62, 0.00, 0.00, 0.000, 0.000, 0.000, 14:44:36.493
12, -27.50, 46.43, 0.00, 0.00, 0.000, 0.000, 0.000, 14:44:36.493
13, -31.30, 46.60, 0.00, 0.00, 0.000, 0.000, 0.000, 14:44:36.508
14, -28.39, 43.81, 0.00, 0.00, 0.000, 0.000, 0.000, 14:44:36.508
15, -27.64, 48.46, 0.00, 0.00, 0.000, 0.000, 0.000, 14:44:36.523
16, -30.66, 47.77, 0.00, 0.00, 0.000, 0.000, 0.000, 14:44:36.524
17, -31.66, 42.48, 0.00, 0.00, 0.000, 0.000, 0.000, 14:44:36.524
18, -30.03, 48.80, 0.00, 0.00, 0.000, 0.000, 0.000, 14:44:36.524
19, -27.15, 51.76, 0.00, 0.00, 0.000, 0.000, 0.000, 14:44:36.538
20, -30.39, 47.01, 0.00, 0.00, 0.000, 0.000, 0.000, 14:44:36.538
21, -31.38, 44.79, 0.00, 0.00, 0.000, 0.000, 0.000, 14:44:36.553
22, -27.39, 42.04, 0.00, 0.00, 0.000, 0.000, 0.000, 14:44:36.553
23, -26.51, 47.10, 0.00, 0.00, 0.000, 0.000, 0.000, 14:44:36.553
24, -27.30, 48.72, 0.00, 0.00, 0.000, 0.000, 0.000, 14:44:36.553
25, -30.86, 46.76, 0.00, 0.00, 0.000, 0.000, 0.000, 14:44:36.568
26, -30.76, 50.85, 0.00, 0.00, 0.000, 0.000, 0.000, 14:44:36.568
27, -28.47, 49.84, 0.00, 0.00, 0.000, 0.000, 0.000, 14:44:36.583
28, -29.97, 40.39, 0.00, 0.00, 0.000, 0.000, 0.000, 14:44:36.584
29, -31.24, 37.01, 0.00, 0.00, 0.000, 0.000, 0.000, 14:44:36.584
30, -27.73, 44.79, 0.00, 0.00, 0.000, 0.000, 0.000, 14:44:36.584
31, -27.06, 48.90, 0.00, 0.00, 0.000, 0.000, 0.000, 14:44:36.597
32, -32.28, 42.39, 0.00, 0.00, 0.000, 0.000, 0.000, 14:44:36.598
33, -30.31, 41.61, 0.00, 0.00, 0.000, 0.000, 0.000, 14:44:36.613
34, -26.66, 43.39, 0.00, 0.00, 0.000, 0.000, 0.000, 14:44:36.613
35, -27.28, 48.41, 0.00, 0.00, 0.000, 0.000, 0.000, 14:44:36.614
36, -27.36, 42.74, 0.00, 0.00, 0.000, 0.000, 0.000, 14:44:36.614
37, -28.33, 47.66, 0.00, 0.00, 0.000, 0.000, 0.000, 14:44:36.636
38, -26.14, 50.32, 0.00, 0.00, 0.000, 0.000, 0.000, 14:44:36.636
39, -27.62, 53.07, 0.00, 0.00, 0.000, 0.000, 0.000, 14:44:36.642
40, -25.36, 49.43, 0.00, 0.00, 0.000, 0.000, 0.000, 14:44:36.643
41, -27.92, 45.61, 0.00, 0.00, 0.000, 0.000, 0.000, 14:44:36.644
42, -27.07, 47.08, 0.00, 0.00, 0.000, 0.000, 0.000, 14:44:36.644
43, -24.94, 46.25, 0.00, 0.00, 0.000, 0.000, 0.000, 14:44:36.658
44, -28.04, 45.27, 0.00, 0.00, 0.000, 0.000, 0.000, 14:44:36.658
45, -27.77, 42.97, 0.00, 0.00, 0.000, 0.000, 0.000, 14:44:36.673
46, -26.42, 44.73, 0.00, 0.00, 0.000, 0.000, 0.000, 14:44:36.673
47, -25.30, 47.33, 0.00, 0.00, 0.000, 0.000, 0.000, 14:44:36.673
48, -25.86, 49.16, 0.00, 0.00, 0.000, 0.000, 0.000, 14:44:36.674
49, -30.51, 41.86, 0.00, 0.00, 0.000, 0.000, 0.000, 14:44:36.688
50, -28.01, 48.31, 0.00, 0.00, 0.000, 0.000, 0.000, 14:44:36.688
51, -25.64, 51.14, 0.00, 0.00, 0.000, 0.000, 0.000, 14:44:36.703
52, -29.48, 49.05, 0.00, 0.00, 0.000, 0.000, 0.000, 14:44:36.704
53, -29.00, 48.78, 0.00, 0.00, 0.000, 0.000, 0.000, 14:44:36.704
54, -29.12, 48.09, 0.00, 0.00, 0.000, 0.000, 0.000, 14:44:36.704
55, -27.50, 49.71, 0.00, 0.00, 0.000, 0.000, 0.000, 14:44:36.718
56, -29.72, 44.26, 0.00, 0.00, 0.000, 0.000, 0.000, 14:44:36.718
57, -29.93, 40.06, 0.00, 0.00, 0.000, 0.000, 0.000, 14:44:36.732
58, -28.76, 45.73, 0.00, 0.00, 0.000, 0.000, 0.000, 14:44:36.733
59, -30.79, 45.97, 0.00, 0.00, 0.000, 0.000, 0.000, 14:44:36.733
60, -26.19, 40.86, 0.00, 0.00, 0.000, 0.000, 0.000, 14:44:36.733
61, -25.16, 42.29, 0.00, 0.00, 0.000, 0.000, 0.000, 14:44:36.747
62, -25.99, 43.22, 0.00, 0.00, 0.000, 0.000, 0.000, 14:44:36.747
63, -25.01, 53.33, 0.00, 0.00, 0.000, 0.000, 0.000, 14:44:36.763
64, -26.91, 46.51, 0.00, 0.00, 0.000, 0.000, 0.000, 14:44:36.763
65, -29.65, 47.27, 0.00, 0.00, 0.000, 0.000, 0.000, 14:44:36.763
66, -26.40, 46.51, 0.00, 0.00, 0.000, 0.000, 0.000, 14:44:36.764
67, -24.94, 48.36, 0.00, 0.00, 0.000, 0.000, 0.000, 14:44:36.778
68, -27.03, 44.99, 0.00, 0.00, 0.000, 0.000, 0.000, 14:44:36.778
69, -26.65, 40.16, 0.00, 0.00, 0.000, 0.000, 0.000, 14:44:36.794
70, -26.41, 43.40, 0.00, 0.00, 0.000, 0.000, 0.000, 14:44:36.794
71, -24.95, 41.41, 0.00, 0.00, 0.000, 0.000, 0.000, 14:44:36.794
72, -25.77, 42.02, 0.00, 0.00, 0.000, 0.000, 0.000, 14:44:36.794
73, -32.09, 42.16, 0.00, 0.00, 0.000, 0.000, 0.000, 14:44:36.808
74, -29.02, 49.98, 0.00, 0.00, 0.000, 0.000, 0.000, 14:44:36.808
75, -29.46, 53.66, 0.00, 0.00, 0.000, 0.000, 0.000, 14:44:36.824
76, -30.62, 50.59, 0.00, 0.00, 0.000, 0.000, 0.000, 14:44:36.824
77, -30.52, 51.55, 0.00, 0.00, 0.000, 0.000, 0.000, 14:44:36.824
78, -27.81, 51.30, 0.00, 0.00, 0.000, 0.000, 0.000, 14:44:36.824
79, -28.35, 50.05, 0.00, 0.00, 0.000, 0.000, 0.000, 14:44:36.838
80, -32.43, 43.81, 0.00, 0.00, 0.000, 0.000, 0.000, 14:44:36.838
81, -31.56, 44.43, 0.00, 0.00, 0.000, 0.000, 0.000, 14:44:36.853
82, -30.61, 52.37, 0.00, 0.00, 0.000, 0.000, 0.000, 14:44:36.854
83, -28.76, 50.92, 0.00, 0.00, 0.000, 0.000, 0.000, 14:44:36.854
84, -29.68, 46.52, 0.00, 0.00, 0.000, 0.000, 0.000, 14:44:36.854
85, -31.40, 47.36, 0.00, 0.00, 0.000, 0.000, 0.000, 14:44:36.868
86, -28.91, 50.05, 0.00, 0.00, 0.000, 0.000, 0.000, 14:44:36.868
87, -23.49, 51.09, 0.00, 0.00, 0.000, 0.000, 0.000, 14:44:36.884
88, -29.57, 48.82, 0.00, 0.00, 0.000, 0.000, 0.000, 14:44:36.885
89, -33.86, 44.27, 0.00, 0.00, 0.000, 0.000, 0.000, 14:44:36.885
90, -29.52, 48.67, 0.00, 0.00, 0.000, 0.000, 0.000, 14:44:36.885
91, -25.55, 50.94, 0.00, 0.00, 0.000, 0.000, 0.000, 14:44:36.906
92, -29.48, 44.49, 0.00, 0.00, 0.000, 0.000, 0.000, 14:44:36.906
93, -27.53, 43.80, 0.00, 0.00, 0.000, 0.000, 0.000, 14:44:36.913
94, -26.13, 48.70, 0.00, 0.00, 0.000, 0.000, 0.000, 14:44:36.914
95, -26.14, 50.08, 0.00, 0.00, 0.000, 0.000, 0.000, 14:44:36.915
96, -28.29, 48.68, 0.00, 0.00, 0.000, 0.000, 0.000, 14:44:36.915
97, -27.84, 51.58, 0.00, 0.00, 0.000, 0.000, 0.000, 14:44:36.928
98, -27.70, 53.87, 0.00, 0.00, 0.000, 0.000, 0.000, 14:44:36.928
99, -26.42, 52.56, 0.00, 0.00, 0.000, 0.000, 0.000, 14:44:36.943
100, -29.55, 50.10, 0.00, 0.00, 0.000, 0.000, 0.000, 14:44:36.943
101, -30.23, 47.91, 0.00, 0.00, 0.000, 0.000, 0.000, 14:44:36.944
102, -28.11, 56.01, 0.00, 0.00, 0.000, 0.000, 0.000, 14:44:36.944
103, -26.27, 49.40, 0.00, 0.00, 0.000, 0.000, 0.000, 14:44:36.958
104, -29.11, 41.75, 0.00, 0.00, 0.000, 0.000, 0.000, 14:44:36.958
105, -27.46, 47.90, 0.00, 0.00, 0.000, 0.000, 0.000, 14:44:36.973
106, -26.09, 51.94, 0.00, 0.00, 0.000, 0.000, 0.000, 14:44:36.973
107, -25.16, 54.68, 0.00, 0.00, 0.000, 0.000, 0.000, 14:44:36.988
108, -28.97, 47.58, 0.00, 0.00, 0.000, 0.000, 0.000, 14:44:36.988
109, -25.65, 46.95, 0.00, 0.00, 0.000, 0.000, 0.000, 14:44:36.989
110, -25.54, 50.15, 0.00, 0.00, 0.000, 0.000, 0.000, 14:44:36.989
111, -25.90, 48.43, 0.00, 0.00, 0.000, 0.000, 0.000, 14:44:37.003
112, -26.37, 50.22, 0.00, 0.00, 0.000, 0.000, 0.000, 14:44:37.003
113, -29.90, 42.03, 0.00, 0.00, 0.000, 0.000, 0.000, 14:44:37.003
114, -24.28, 51.21, 0.00, 0.00, 0.000, 0.000, 0.000, 14:44:37.003
115, -22.60, 53.93, 0.00, 0.00, 0.000, 0.000, 0.000, 14:44:37.019
116, -25.72, 46.07, 0.00, 0.00, 0.000, 0.000, 0.000, 14:44:37.019
117, -27.31, 43.55, 0.00, 0.00, 0.000, 0.000, 0.000, 14:44:37.033
118, -25.02, 50.32, 0.00, 0.00, 0.000, 0.000, 0.000, 14:44:37.033
119, -22.65, 51.37, 0.00, 0.00, 0.000, 0.000, 0.000, 14:44:37.034
120, -28.12, 48.69, 0.00, 0.00, 0.000, 0.000, 0.000, 14:44:37.034
121, -27.38, 42.14, 0.00, 0.00, 0.000, 0.000, 0.000, 14:44:37.051
122, -23.16, 41.80, 0.00, 0.00, 0.000, 0.000, 0.000, 14:44:37.051
123, -24.51, 49.67, 0.00, 0.00, 0.000, 0.000, 0.000, 14:44:37.063
124, -23.37, 43.30, 0.00, 0.00, 0.000, 0.000, 0.000, 14:44:37.064
125, -27.63, 42.58, 0.00, 0.00, 0.000, 0.000, 0.000, 14:44:37.064
126, -24.30, 42.14, 0.00, 0.00, 0.000, 0.000, 0.000, 14:44:37.064
127, -25.14, 51.20, 0.00, 0.00, 0.000, 0.000, 0.000, 14:44:37.078
128, -26.14, 45.86, 0.00, 0.00, 0.000, 0.000, 0.000, 14:44:37.078
129, -24.31, 42.30, 0.00, 0.00, 0.000, 0.000, 0.000, 14:44:37.093
130, -22.88, 53.82, 0.00, 0.00, 0.000, 0.000, 0.000, 14:44:37.093
131, -22.76, 52.67, 0.00, 0.00, 0.000, 0.000, 0.000, 14:44:37.094
132, -27.28, 52.42, 0.00, 0.00, 0.000, 0.000, 0.000, 14:44:37.094
133, -26.23, 48.91, 0.00, 0.00, 0.000, 0.000, 0.000, 14:44:37.108
134, -24.08, 45.57, 0.00, 0.00, 0.000, 0.000, 0.000, 14:44:37.109
135, -22.84, 46.62, 0.00, 0.00, 0.000, 0.000, 0.000, 14:44:37.124
136, -23.34, 45.66, 0.00, 0.00, 0.000, 0.000, 0.000, 14:44:37.124
137, -23.04, 46.05, 0.00, 0.00, 0.000, 0.000, 0.000, 14:44:37.124
138, -20.65, 50.84, 0.00, 0.00, 0.000, 0.000, 0.000, 14:44:37.124
139, -20.57, 52.77, 0.00, 0.00, 0.000, 0.000, 0.000, 14:44:37.138
140, -21.06, 44.32, 0.00, 0.00, 0.000, 0.000, 0.000, 14:44:37.139
141, -22.63, 41.30, 0.00, 0.00, 0.000, 0.000, 0.000, 14:44:37.153
142, -18.76, 49.25, 0.00, 0.00, 0.000, 0.000, 0.000, 14:44:37.153
143, -16.87, 49.52, 0.00, 0.00, 0.000, 0.000, 0.000, 14:44:37.154
144, -23.72, 50.60, 0.00, 0.00, 0.000, 0.000, 0.000, 14:44:37.154
145, -28.78, 47.58, 0.00, 0.00, 0.000, 0.000, 0.000, 14:44:37.168
146, -22.15, 43.61, 0.00, 0.00, 0.000, 0.000, 0.000, 14:44:37.168
147, -20.18, 47.58, 0.00, 0.00, 0.000, 0.000, 0.000, 14:44:37.183
148, -21.50, 48.05, 0.00, 0.00, 0.000, 0.000, 0.000, 14:44:37.183
149, -21.21, 42.17, 0.00, 0.00, 0.000, 0.000, 0.000, 14:44:37.183
150, -21.77, 48.46, 0.00, 0.00, 0.000, 0.000, 0.000, 14:44:37.183
151, -17.34, 45.41, 0.00, 0.00, 0.000, 0.000, 0.000, 14:44:37.198
152, -19.37, 41.34, 0.00, 0.00, 0.000, 0.000, 0.000, 14:44:37.198
153, -23.29, 41.80, 0.00, 0.00, 0.000, 0.000, 0.000, 14:44:37.213
154, -20.75, 47.00, 0.00, 0.00, 0.000, 0.000, 0.000, 14:44:37.213
155, -19.12, 47.47, 0.00, 0.00, 0.000, 0.000, 0.000, 14:44:37.214
156, -21.83, 45.26, 0.00, 0.00, 0.000, 0.000, 0.000, 14:44:37.214
157, -20.56, 43.29, 0.00, 0.00, 0.000, 0.000, 0.000, 14:44:37.229
158, -17.66, 35.77, 0.00, 0.00, 0.000, 0.000, 0.000, 14:44:37.229
159, -15.35, 40.15, 0.00, 0.00, 0.000, 0.000, 0.000, 14:44:37.243
160, -17.07, 43.43, 0.00, 0.00, 0.000, 0.000, 0.000, 14:44:37.244
161, -20.91, 36.45, 0.00, 0.00, 0.000, 0.000, 0.000, 14:44:37.244
162, -17.86, 45.14, 0.00, 0.00, 0.000, 0.000, 0.000, 14:44:37.244
163, -18.57, 47.37, 0.00, 0.00, 0.000, 0.000, 0.000, 14:44:37.258
164, -21.56, 37.72, 0.00, 0.00, 0.000, 0.000, 0.000, 14:44:37.258
165, -21.19, 35.46, 0.00, 0.00, 0.000, 0.000, 0.000, 14:44:37.273
166, -18.28, 46.64, 0.00, 0.00, 0.000, 0.000, 0.000, 14:44:37.273
167, -17.77, 48.03, 0.00, 0.00, 0.000, 0.000, 0.000, 14:44:37.273
168, -19.73, 42.98, 0.00, 0.00, 0.000, 0.000, 0.000, 14:44:37.273
169, -19.66, 41.10, 0.00, 0.00, 0.000, 0.000, 0.000, 14:44:37.298
170, -15.75, 38.67, 0.00, 0.00, 0.000, 0.000, 0.000, 14:44:37.298
171, -15.72, 39.72, 0.00, 0.00, 0.000, 0.000, 0.000, 14:44:37.302
172, -16.83, 38.79, 0.00, 0.00, 0.000, 0.000, 0.000, 14:44:37.303
173, -20.45, 38.02, 0.00, 0.00, 0.000, 0.000, 0.000, 14:44:37.303
174, -21.48, 42.88, 0.00, 0.00, 0.000, 0.000, 0.000, 14:44:37.303
175, -19.04, 42.14, 0.00, 0.00, 0.000, 0.000, 0.000, 14:44:37.317
176, -19.73, 41.65, 0.00, 0.00, 0.000, 0.000, 0.000, 14:44:37.318
177, -16.60, 41.30, 0.00, 0.00, 0.000, 0.000, 0.000, 14:44:37.332
178, -16.45, 41.78, 0.00, 0.00, 0.000, 0.000, 0.000, 14:44:37.332
179, -15.52, 46.24, 0.00, 0.00, 0.000, 0.000, 0.000, 14:44:37.333
180, -20.20, 43.22, 0.00, 0.00, 0.000, 0.000, 0.000, 14:44:37.333
181, -22.89, 40.09, 0.00, 0.00, 0.000, 0.000, 0.000, 14:44:37.354
182, -20.64, 41.02, 0.00, 0.00, 0.000, 0.000, 0.000, 14:44:37.354
183, -16.15, 42.35, 0.00, 0.00, 0.000, 0.000, 0.000, 14:44:37.366
184, -20.39, 41.45, 0.00, 0.00, 0.000, 0.000, 0.000, 14:44:37.366
185, -20.57, 42.23, 0.00, 0.00, 0.000, 0.000, 0.000, 14:44:37.367
186, -17.78, 43.38, 0.00, 0.00, 0.000, 0.000, 0.000, 14:44:37.367
187, -16.37, 44.03, 0.00, 0.00, 0.000, 0.000, 0.000, 14:44:37.378
188, -22.63, 43.38, 0.00, 0.00, 0.000, 0.000, 0.000, 14:44:37.378
189, -18.16, 41.31, 0.00, 0.00, 0.000, 0.000, 0.000, 14:44:37.393
190, -18.56, 50.95, 0.00, 0.00, 0.000, 0.000, 0.000, 14:44:37.394
191, -20.20, 44.71, 0.00, 0.00, 0.000, 0.000, 0.000, 14:44:37.394
192, -21.61, 42.65, 0.00, 0.00, 0.000, 0.000, 0.000, 14:44:37.394
193, -24.00, 45.94, 0.00, 0.00, 0.000, 0.000, 0.000, 14:44:37.408
194, -19.45, 45.84, 0.00, 0.00, 0.000, 0.000, 0.000, 14:44:37.408
195, -18.33, 47.41, 0.00, 0.00, 0.000, 0.000, 0.000, 14:44:37.423
196, -21.04, 46.03, 0.00, 0.00, 0.000, 0.000, 0.000, 14:44:37.423
197, -21.15, 42.34, 0.00, 0.00, 0.000, 0.000, 0.000, 14:44:37.423
198, -21.07, 43.40, 0.00, 0.00, 0.000, 0.000, 0.000, 14:44:37.423
199, -20.60, 45.41, 0.00, 0.00, 0.000, 0.000, 0.000, 14:44:37.438
200, -21.07, 41.56, 0.00, 0.00, 0.000, 0.000, 0.000, 14:44:37.438
0, -22.57, 42.64, 0.00, 0.00, 0.000, 0.000, 0.000, 14:44:37.438
1, -18.28, 39.81, 0.00, 0.00, 0.000, 0.000, 0.000, 14:44:37.454
2, -18.28, 34.20, 0.00, 0.00, 0.000, 0.000, 0.000, 14:44:37.454
3, -19.33, 39.60, 0.00, 0.00, 0.000, 0.000, 0.000, 14:44:37.468
4, -18.59, 42.01, 0.00, 0.00, 0.000, 0.000, 0.000, 14:44:37.468
5, -19.76, 43.28, 0.00, 0.00, 0.000, 0.000, 0.000, 14:44:37.469
6, -16.47, 40.52, 0.00, 0.00, 0.000, 0.000, 0.000, 14:44:37.469
7, -20.52, 41.50, 0.00, 0.00, 0.000, 0.000, 0.000, 14:44:37.484
8, -24.26, 38.75, 0.00, 0.00, 0.000, 0.000, 0.000, 14:44:37.484
9, -19.64, 40.76, 0.00, 0.00, 0.000, 0.000, 0.000, 14:44:37.499
10, -17.71, 42.98, 0.00, 0.00, 0.000, 0.000, 0.000, 14:44:37.499
11, -20.06, 38.04, 0.00, 0.00, 0.000, 0.000, 0.000, 14:44:37.500
12, -19.86, 42.06, 0.00, 0.00, 0.000, 0.000, 0.000, 14:44:37.500
13, -13.86, 42.09, 0.00, 0.00, 0.000, 0.000, 0.000, 14:44:37.514
14, -16.29, 41.59, 0.00, 0.00, 0.000, 0.000, 0.000, 14:44:37.515
15, -18.95, 39.62, 0.00, 0.00, 0.000, 0.000, 0.000, 14:44:37.529
16, -19.63, 42.17, 0.00, 0.00, 0.000, 0.000, 0.000, 14:44:37.529
17, -16.60, 40.75, 0.00, 0.00, 0.000, 0.000, 0.000, 14:44:37.530
18, -17.59, 41.37, 0.00, 0.00, 0.000, 0.000, 0.000, 14:44:37.530
19, -20.88, 38.85, 0.00, 0.00, 0.000, 0.000, 0.000, 14:44:37.545
20, -22.80, 33.40, 0.00, 0.00, 0.000, 0.000, 0.000, 14:44:37.546
21, -19.03, 44.05, 0.00, 0.00, 0.000, 0.000, 0.000, 14:44:37.560
22, -17.21, 44.32, 0.00, 0.00, 0.000, 0.000, 0.000, 14:44:37.560
23, -19.18, 37.71, 0.00, 0.00, 0.000, 0.000, 0.000, 14:44:37.561
24, -18.93, 37.35, 0.00, 0.00, 0.000, 0.000, 0.000, 14:44:37.561
25, -21.50, 43.81, 0.00, 0.00, 0.000, 0.000, 0.000, 14:44:37.573
26, -18.16, 37.95, 0.00, 0.00, 0.000, 0.000, 0.000, 14:44:37.573
27, -22.46, 40.03, 0.00, 0.00, 0.000, 0.000, 0.000, 14:44:37.588
28, -24.75, 41.88, 0.00, 0.00, 0.000, 0.000, 0.000, 14:44:37.588
29, -21.84, 40.58, 0.00, 0.00, 0.000, 0.000, 0.000, 14:44:37.589
30, -19.98, 44.48, 0.00, 0.00, 0.000, 0.000, 0.000, 14:44:37.589
31, -23.57, 40.50, 0.00, 0.00, 0.000, 0.000, 0.000, 14:44:37.602
32, -25.80, 35.62, 0.00, 0.00, 0.000, 0.000, 0.000, 14:44:37.602
33, -23.89, 40.56, 0.00, 0.00, 0.000, 0.000, 0.000, 14:44:37.618
34, -20.79, 39.69, 0.00, 0.00, 0.000, 0.000, 0.000, 14:44:37.618
35, -25.74, 36.11, 0.00, 0.00, 0.000, 0.000, 0.000, 14:44:37.618
36, -27.23, 41.71, 0.00, 0.00, 0.000, 0.000, 0.000, 14:44:37.618
37, -23.72, 41.75, 0.00, 0.00, 0.000, 0.000, 0.000, 14:44:37.633
38, -21.38, 40.15, 0.00, 0.00, 0.000, 0.000, 0.000, 14:44:37.633
39, -25.31, 38.82, 0.00, 0.00, 0.000, 0.000, 0.000, 14:44:37.648
40, -25.65, 40.26, 0.00, 0.00, 0.000, 0.000, 0.000, 14:44:37.648
41, -22.67, 43.49, 0.00, 0.00, 0.000, 0.000, 0.000, 14:44:37.648
42, -22.80, 46.39, 0.00, 0.00, 0.000, 0.000, 0.000, 14:44:37.649
43, -27.10, 47.23, 0.00, 0.00, 0.000, 0.000, 0.000, 14:44:37.663
44, -23.34, 40.02, 0.00, 0.00, 0.000, 0.000, 0.000, 14:44:37.663
45, -18.87, 43.54, 0.00, 0.00, 0.000, 0.000, 0.000, 14:44:37.678
46, -20.14, 44.69, 0.00, 0.00, 0.000, 0.000, 0.000, 14:44:37.678
47, -27.04, 40.19, 0.00, 0.00, 0.000, 0.000, 0.000, 14:44:37.679
48, -24.83, 37.06, 0.00, 0.00, 0.000, 0.000, 0.000, 14:44:37.679
49, -19.97, 44.12, 0.00, 0.00, 0.000, 0.000, 0.000, 14:44:37.693
50, -18.95, 42.29, 0.00, 0.00, 0.000, 0.000, 0.000, 14:44:37.694
51, -23.96, 40.53, 0.00, 0.00, 0.000, 0.000, 0.000, 14:44:37.708
52, -24.64, 42.89, 0.00, 0.00, 0.000, 0.000, 0.000, 14:44:37.708
53, -21.81, 44.70, 0.00, 0.00, 0.000, 0.000, 0.000, 14:44:37.709
54, -22.19, 45.53, 0.00, 0.00, 0.000, 0.000, 0.000, 14:44:37.709
55, -22.15, 37.84, 0.00, 0.00, 0.000, 0.000, 0.000, 14:44:37.723
56, -24.32, 40.81, 0.00, 0.00, 0.000, 0.000, 0.000, 14:44:37.724
57, -21.50, 44.84, 0.00, 0.00, 0.000, 0.000, 0.000, 14:44:37.738
58, -20.75, 47.73, 0.00, 0.00, 0.000, 0.000, 0.000, 14:44:37.738
59, -25.12, 42.97, 0.00, 0.00, 0.000, 0.000, 0.000, 14:44:37.738
60, -26.48, 42.64, 0.00, 0.00, 0.000, 0.000, 0.000, 14:44:37.738
61, -24.75, 45.30, 0.00, 0.00, 0.000, 0.000, 0.000, 14:44:37.754
62, -23.39, 47.93, 0.00, 0.00, 0.000, 0.000, 0.000, 14:44:37.754
63, -24.63, 41.19, 0.00, 0.00, 0.000, 0.000, 0.000, 14:44:37.768
64, -28.25, 39.80, 0.00, 0.00, 0.000, 0.000, 0.000, 14:44:37.768
65, -24.51, 37.83, 0.00, 0.00, 0.000, 0.000, 0.000, 14:44:37.768
66, -24.06, 45.01, 0.00, 0.00, 0.000, 0.000, 0.000, 14:44:37.768
67, -26.00, 42.15, 0.00, 0.00, 0.000, 0.000, 0.000, 14:44:37.784
68, -27.31, 40.97, 0.00, 0.00, 0.000, 0.000, 0.000, 14:44:37.784
69, -24.56, 43.70, 0.00, 0.00, 0.000, 0.000, 0.000, 14:44:37.799
70, -23.96, 49.58, 0.00, 0.00, 0.000, 0.000, 0.000, 14:44:37.799
71, -26.11, 41.02, 0.00, 0.00, 0.000, 0.000, 0.000, 14:44:37.799
72, -27.34, 42.99, 0.00, 0.00, 0.000, 0.000, 0.000, 14:44:37.799
73, -24.26, 40.22, 0.00, 0.00, 0.000, 0.000, 0.000, 14:44:37.813
74, -22.32, 46.10, 0.00, 0.00, 0.000, 0.000, 0.000, 14:44:37.813
75, -26.57, 41.47, 0.00, 0.00, 0.000, 0.000, 0.000, 14:44:37.828
76, -25.58, 42.03, 0.00, 0.00, 0.000, 0.000, 0.000, 14:44:37.829
77, -24.39, 46.30, 0.00, 0.00, 0.000, 0.000, 0.000, 14:44:37.830
78, -22.76, 52.65, 0.00, 0.00, 0.000, 0.000, 0.000, 14:44:37.830
79, -26.78, 52.17, 0.00, 0.00, 0.000, 0.000, 0.000, 14:44:37.843
80, -26.47, 46.27, 0.00, 0.00, 0.000, 0.000, 0.000, 14:44:37.843
81, -23.33, 43.57, 0.00, 0.00, 0.000, 0.000, 0.000, 14:44:37.858
82, -27.10, 45.63, 0.00, 0.00, 0.000, 0.000, 0.000, 14:44:37.858
83, -26.81, 37.71, 0.00, 0.00, 0.000, 0.000, 0.000, 14:44:37.858
84, -27.18, 42.06, 0.00, 0.00, 0.000, 0.000, 0.000, 14:44:37.859
85, -27.18, 47.63, 0.00, 0.00, 0.000, 0.000, 0.000, 14:44:37.873
86, -25.02, 50.89, 0.00, 0.00, 0.000, 0.000, 0.000, 14:44:37.873
87, -27.94, 45.28, 0.00, 0.00, 0.000, 0.000, 0.000, 14:44:37.889
88, -27.06, 43.10, 0.00, 0.00, 0.000, 0.000, 0.000, 14:44:37.889
89, -22.41, 49.38, 0.00, 0.00, 0.000, 0.000, 0.000, 14:44:37.889
90, -26.06, 48.52, 0.00, 0.00, 0.000, 0.000, 0.000, 14:44:37.889
91, -26.98, 45.63, 0.00, 0.00, 0.000, 0.000, 0.000, 14:44:37.904
92, -25.76, 41.93, 0.00, 0.00, 0.000, 0.000, 0.000, 14:44:37.904
93, -24.72, 47.06, 0.00, 0.00, 0.000, 0.000, 0.000, 14:44:37.919
94, -24.55, 50.50, 0.00, 0.00, 0.000, 0.000, 0.000, 14:44:37.920
95, -27.48, 43.03, 0.00, 0.00, 0.000, 0.000, 0.000, 14:44:37.923
96, -26.08, 46.74, 0.00, 0.00, 0.000, 0.000, 0.000, 14:44:37.923
97, -24.39, 44.83, 0.00, 0.00, 0.000, 0.000, 0.000, 14:44:37.933
98, -25.81, 45.70, 0.00, 0.00, 0.000, 0.000, 0.000, 14:44:37.934
99, -25.19, 41.86, 0.00, 0.00, 0.000, 0.000, 0.000, 14:44:37.948
100, -27.94, 50.66, 0.00, 0.00, 0.000, 0.000, 0.000, 14:44:37.948
101, -21.32, 45.25, 0.00, 0.00, 0.000, 0.000, 0.000, 14:44:37.949
102, -22.59, 50.50, 0.00, 0.00, 0.000, 0.000, 0.000, 14:44:37.949
103, -21.75, 47.64, 0.00, 0.00, 0.000, 0.000, 0.000, 14:44:37.963
104, -26.16, 46.65, 0.00, 0.00, 0.000, 0.000, 0.000, 14:44:37.963
105, -22.72, 53.75, 0.00, 0.00, 0.000, 0.000, 0.000, 14:44:37.978
106, -23.17, 48.28, 0.00, 0.00, 0.000, 0.000, 0.000, 14:44:37.978
107, -25.45, 44.72, 0.00, 0.00, 0.000, 0.000, 0.000, 14:44:37.979
108, -23.33, 43.05, 0.00, 0.00, 0.000, 0.000, 0.000, 14:44:37.979
109, -22.56, 44.29, 0.00, 0.00, 0.000, 0.000, 0.000, 14:44:37.993
110, -20.83, 43.44, 0.00, 0.00, 0.000, 0.000, 0.000, 14:44:37.994
111, -24.58, 40.41, 0.00, 0.00, 0.000, 0.000, 0.000, 14:44:38.008
112, -23.79, 37.40, 0.00, 0.00, 0.000, 0.000, 0.000, 14:44:38.009
113, -21.12, 40.53, 0.00, 0.00, 0.000, 0.000, 0.000, 14:44:38.009
114, -20.46, 42.64, 0.00, 0.00, 0.000, 0.000, 0.000, 14:44:38.009
115, -21.72, 38.46, 0.00, 0.00, 0.000, 0.000, 0.000, 14:44:38.023
116, -23.26, 42.01, 0.00, 0.00, 0.000, 0.000, 0.000, 14:44:38.024
117, -21.55, 47.67, 0.00, 0.00, 0.000, 0.000, 0.000, 14:44:38.037
118, -20.96, 48.30, 0.00, 0.00, 0.000, 0.000, 0.000, 14:44:38.037
119, -23.14, 41.04, 0.00, 0.00, 0.000, 0.000, 0.000, 14:44:38.038
120, -23.16, 47.95, 0.00, 0.00, 0.000, 0.000, 0.000, 14:44:38.038
121, -19.64, 54.57, 0.00, 0.00, 0.000, 0.000, 0.000, 14:44:38.053
122, -22.24, 43.41, 0.00, 0.00, 0.000, 0.000, 0.000, 14:44:38.053
123, -23.73, 40.79, 0.00, 0.00, 0.000, 0.000, 0.000, 14:44:38.068
124, -23.53, 40.78, 0.00, 0.00, 0.000, 0.000, 0.000, 14:44:38.068
125, -20.78, 44.05, 0.00, 0.00, 0.000, 0.000, 0.000, 14:44:38.069
126, -25.04, 46.51, 0.00, 0.00, 0.000, 0.000, 0.000, 14:44:38.069
127, -21.93, 41.09, 0.00, 0.00, 0.000, 0.000, 0.000, 14:44:38.083
128, -26.75, 38.15, 0.00, 0.00, 0.000, 0.000, 0.000, 14:44:38.083
129, -21.14, 45.99, 0.00, 0.00, 0.000, 0.000, 0.000, 14:44:38.098
130, -20.93, 48.53, 0.00, 0.00, 0.000, 0.000, 0.000, 14:44:38.098
131, -26.87, 45.27, 0.00, 0.00, 0.000, 0.000, 0.000, 14:44:38.099
132, -24.61, 44.99, 0.00, 0.00, 0.000, 0.000, 0.000, 14:44:38.099
133, -25.45, 46.03, 0.00, 0.00, 0.000, 0.000, 0.000, 14:44:38.120
134, -24.77, 46.62, 0.00, 0.00, 0.000, 0.000, 0.000, 14:44:38.120
135, -25.89, 45.33, 0.00, 0.00, 0.000, 0.000, 0.000, 14:44:38.128
136, -26.71, 37.54, 0.00, 0.00, 0.000, 0.000, 0.000, 14:44:38.129
137, -27.31, 41.13, 0.00, 0.00, 0.000, 0.000, 0.000, 14:44:38.129
138, -24.38, 44.84, 0.00, 0.00, 0.000, 0.000, 0.000, 14:44:38.129
139, -27.49, 38.57, 0.00, 0.00, 0.000, 0.000, 0.000, 14:44:38.144
140, -24.76, 38.48, 0.00, 0.00, 0.000, 0.000, 0.000, 14:44:38.144
141, -23.56, 46.14, 0.00, 0.00, 0.000, 0.000, 0.000, 14:44:38.159
142, -28.17, 44.63, 0.00, 0.00, 0.000, 0.000, 0.000, 14:44:38.159
143, -27.81, 45.02, 0.00, 0.00, 0.000, 0.000, 0.000, 14:44:38.160
144, -27.34, 45.13, 0.00, 0.00, 0.000, 0.000, 0.000, 14:44:38.160
145, -25.14, 47.83, 0.00, 0.00, 0.000, 0.000, 0.000, 14:44:38.173
146, -21.26, 47.44, 0.00, 0.00, 0.000, 0.000, 0.000, 14:44:38.173
147, -23.76, 43.39, 0.00, 0.00, 0.000, 0.000, 0.000, 14:44:38.189
148, -26.32, 38.94, 0.00, 0.00, 0.000, 0.000, 0.000, 14:44:38.189
149, -23.22, 41.04, 0.00, 0.00, 0.000, 0.000, 0.000, 14:44:38.190
150, -24.11, 47.78, 0.00, 0.00, 0.000, 0.000, 0.000, 14:44:38.190
151, -25.29, 46.74, 0.00, 0.00, 0.000, 0.000, 0.000, 14:44:38.204
152, -26.81, 43.53, 0.00, 0.00, 0.000, 0.000, 0.000, 14:44:38.204
153, -25.92, 51.51, 0.00, 0.00, 0.000, 0.000, 0.000, 14:44:38.219
154, -23.36, 46.90, 0.00, 0.00, 0.000, 0.000, 0.000, 14:44:38.219
155, -28.63, 43.57, 0.00, 0.00, 0.000, 0.000, 0.000, 14:44:38.220
156, -27.81, 38.46, 0.00, 0.00, 0.000, 0.000, 0.000, 14:44:38.220
157, -26.50, 43.73, 0.00, 0.00, 0.000, 0.000, 0.000, 14:44:38.234
158, -25.99, 43.30, 0.00, 0.00, 0.000, 0.000, 0.000, 14:44:38.234
159, -27.58, 41.58, 0.00, 0.00, 0.000, 0.000, 0.000, 14:44:38.248
160, -24.52, 42.74, 0.00, 0.00, 0.000, 0.000, 0.000, 14:44:38.249
161, -26.86, 47.80, 0.00, 0.00, 0.000, 0.000, 0.000, 14:44:38.249
162, -28.16, 44.73, 0.00, 0.00, 0.000, 0.000, 0.000, 14:44:38.249
163, -29.81, 48.61, 0.00, 0.00, 0.000, 0.000, 0.000, 14:44:38.264
164, -29.84, 43.63, 0.00, 0.00, 0.000, 0.000, 0.000, 14:44:38.264
165, -25.93, 52.14, 0.00, 0.00, 0.000, 0.000, 0.000, 14:44:38.278
166, -24.45, 52.03, 0.00, 0.00, 0.000, 0.000, 0.000, 14:44:38.278
167, -28.11, 43.68, 0.00, 0.00, 0.000, 0.000, 0.000, 14:44:38.278
168, -24.53, 42.31, 0.00, 0.00, 0.000, 0.000, 0.000, 14:44:38.279
169, -23.96, 50.38, 0.00, 0.00, 0.000, 0.000, 0.000, 14:44:38.294
170, -22.46, 49.40, 0.00, 0.00, 0.000, 0.000, 0.000, 14:44:38.294
171, -25.67, 44.14, 0.00, 0.00, 0.000, 0.000, 0.000, 14:44:38.309
172, -23.49, 45.56, 0.00, 0.00, 0.000, 0.000, 0.000, 14:44:38.309
173, -21.44, 49.69, 0.00, 0.00, 0.000, 0.000, 0.000, 14:44:38.309
174, -22.59, 51.61, 0.00, 0.00, 0.000, 0.000, 0.000, 14:44:38.310
175, -27.44, 49.32, 0.00, 0.00, 0.000, 0.000, 0.000, 14:44:38.323
176, -26.42, 45.93, 0.00, 0.00, 0.000, 0.000, 0.000, 14:44:38.324
177, -23.65, 52.48, 0.00, 0.00, 0.000, 0.000, 0.000, 14:44:38.339
178, -22.00, 50.68, 0.00, 0.00, 0.000, 0.000, 0.000, 14:44:38.340
179, -26.03, 46.62, 0.00, 0.00, 0.000, 0.000, 0.000, 14:44:38.340
180, -28.25, 43.98, 0.00, 0.00, 0.000, 0.000, 0.000, 14:44:38.340
181, -25.39, 51.43, 0.00, 0.00, 0.000, 0.000, 0.000, 14:44:38.355
182, -24.86, 50.35, 0.00, 0.00, 0.000, 0.000, 0.000, 14:44:38.355
183, -27.70, 45.32, 0.00, 0.00, 0.000, 0.000, 0.000, 14:44:38.368
184, -25.87, 46.50, 0.00, 0.00, 0.000, 0.000, 0.000, 14:44:38.369
185, -24.05, 45.73, 0.00, 0.00, 0.000, 0.000, 0.000, 14:44:38.369
186, -22.07, 50.72, 0.00, 0.00, 0.000, 0.000, 0.000, 14:44:38.369
187, -26.00, 44.02, 0.00, 0.00, 0.000, 0.000, 0.000, 14:44:38.384
188, -25.09, 39.04, 0.00, 0.00, 0.000, 0.000, 0.000, 14:44:38.384
189, -25.52, 43.60, 0.00, 0.00, 0.000, 0.000, 0.000, 14:44:38.398
190, -26.53, 47.38, 0.00, 0.00, 0.000, 0.000, 0.000, 14:44:38.399
191, -25.05, 43.62, 0.00, 0.00, 0.000, 0.000, 0.000, 14:44:38.399
192, -26.40, 42.03, 0.00, 0.00, 0.000, 0.000, 0.000, 14:44:38.399
193, -22.58, 49.43, 0.00, 0.00, 0.000, 0.000, 0.000, 14:44:38.413
194, -24.43, 52.27, 0.00, 0.00, 0.000, 0.000, 0.000, 14:44:38.413
195, -24.35, 46.37, 0.00, 0.00, 0.000, 0.000, 0.000, 14:44:38.428
196, -27.34, 46.81, 0.00, 0.00, 0.000, 0.000, 0.000, 14:44:38.428
197, -27.32, 45.61, 0.00, 0.00, 0.000, 0.000, 0.000, 14:44:38.430
198, -25.76, 50.29, 0.00, 0.00, 0.000, 0.000, 0.000, 14:44:38.430
199, -25.46, 44.46, 0.00, 0.00, 0.000, 0.000, 0.000, 14:44:38.444
200, -25.01, 37.71, 0.00, 0.00, 0.000, 0.000, 0.000, 14:44:38.444
0, -20.64, 42.20, 0.00, 0.00, 0.000, 0.000, 0.000, 14:44:38.445
1, -23.33, 51.91, 0.00, 0.00, 0.000, 0.000, 0.000, 14:44:38.459
2, -24.91, 43.84, 0.00, 0.00, 0.000, 0.000, 0.000, 14:44:38.460
3, -23.85, 42.80, 0.00, 0.00, 0.000, 0.000, 0.000, 14:44:38.474
4, -22.86, 45.90, 0.00, 0.00, 0.000, 0.000, 0.000, 14:44:38.474
5, -23.59, 50.19, 0.00, 0.00, 0.000, 0.000, 0.000, 14:44:38.474
6, -25.10, 48.93, 0.00, 0.00, 0.000, 0.000, 0.000, 14:44:38.475
7, -26.69, 48.15, 0.00, 0.00, 0.000, 0.000, 0.000, 14:44:38.488
8, -23.94, 48.28, 0.00, 0.00, 0.000, 0.000, 0.000, 14:44:38.489
9, -22.70, 50.48, 0.00, 0.00, 0.000, 0.000, 0.000, 14:44:38.503
10, -26.16, 42.18, 0.00, 0.00, 0.000, 0.000, 0.000, 14:44:38.503
11, -26.36, 42.30, 0.00, 0.00, 0.000, 0.000, 0.000, 14:44:38.503
12, -20.73, 47.47, 0.00, 0.00, 0.000, 0.000, 0.000, 14:44:38.504
13, -23.96, 42.99, 0.00, 0.00, 0.000, 0.000, 0.000, 14:44:38.518
14, -23.35, 39.93, 0.00, 0.00, 0.000, 0.000, 0.000, 14:44:38.518
15, -22.18, 41.82, 0.00, 0.00, 0.000, 0.000, 0.000, 14:44:38.533
16, -21.98, 44.90, 0.00, 0.00, 0.000, 0.000, 0.000, 14:44:38.533
17, -18.82, 42.53, 0.00, 0.00, 0.000, 0.000, 0.000, 14:44:38.533
18, -22.86, 37.03, 0.00, 0.00, 0.000, 0.000, 0.000, 14:44:38.534
19, -22.89, 40.80, 0.00, 0.00, 0.000, 0.000, 0.000, 14:44:38.548
20, -26.29, 40.49, 0.00, 0.00, 0.000, 0.000, 0.000, 14:44:38.548
21, -17.50, 43.16, 0.00, 0.00, 0.000, 0.000, 0.000, 14:44:38.563
22, -23.83, 41.46, 0.00, 0.00, 0.000, 0.000, 0.000, 14:44:38.564
23, -23.42, 39.44, 0.00, 0.00, 0.000, 0.000, 0.000, 14:44:38.564
24, -20.70, 43.63, 0.00, 0.00, 0.000, 0.000, 0.000, 14:44:38.564
25, -21.41, 49.30, 0.00, 0.00, 0.000, 0.000, 0.000, 14:44:38.578
26, -23.20, 46.56, 0.00, 0.00, 0.000, 0.000, 0.000, 14:44:38.578
27, -22.43, 43.30, 0.00, 0.00, 0.000, 0.000, 0.000, 14:44:38.593
28, -25.02, 46.36, 0.00, 0.00, 0.000, 0.000, 0.000, 14:44:38.593
29, -24.62, 45.13, 0.00, 0.00, 0.000, 0.000, 0.000, 14:44:38.601
30, -23.97, 42.62, 0.00, 0.00, 0.000, 0.000, 0.000, 14:44:38.601
31, -23.83, 42.70, 0.00, 0.00, 0.000, 0.000, 0.000, 14:44:38.608
32, -22.27, 43.54, 0.00, 0.00, 0.000, 0.000, 0.000, 14:44:38.608
33, -21.97, 45.57, 0.00, 0.00, 0.000, 0.000, 0.000, 14:44:38.623
34, -24.43, 48.56, 0.00, 0.00, 0.000, 0.000, 0.000, 14:44:38.623
35, -23.81, 47.98, 0.00, 0.00, 0.000, 0.000, 0.000, 14:44:38.624
36, -25.10, 47.87, 0.00, 0.00, 0.000, 0.000, 0.000, 14:44:38.624
37, -22.07, 50.59, 0.00, 0.00, 0.000, 0.000, 0.000, 14:44:38.638
38, -23.40, 41.97, 0.00, 0.00, 0.000, 0.000, 0.000, 14:44:38.638
39, -23.61, 39.43, 0.00, 0.00, 0.000, 0.000, 0.000, 14:44:38.653
40, -22.52, 42.23, 0.00, 0.00, 0.000, 0.000, 0.000, 14:44:38.654
41, -22.98, 46.15, 0.00, 0.00, 0.000, 0.000, 0.000, 14:44:38.654
42, -24.12, 40.92, 0.00, 0.00, 0.000, 0.000, 0.000, 14:44:38.654
43, -24.39, 40.49, 0.00, 0.00, 0.000, 0.000, 0.000, 14:44:38.668
44, -19.74, 41.16, 0.00, 0.00, 0.000, 0.000, 0.000, 14:44:38.668
45, -23.80, 47.51, 0.00, 0.00, 0.000, 0.000, 0.000, 14:44:38.683
46, -25.18, 45.37, 0.00, 0.00, 0.000, 0.000, 0.000, 14:44:38.683
47, -21.67, 41.06, 0.00, 0.00, 0.000, 0.000, 0.000, 14:44:38.684
48, -19.87, 43.27, 0.00, 0.00, 0.000, 0.000, 0.000, 14:44:38.684
49, -20.06, 41.24, 0.00, 0.00, 0.000, 0.000, 0.000, 14:44:38.698
50, -20.93, 34.01, 0.00, 0.00, 0.000, 0.000, 0.000, 14:44:38.699
51, -23.95, 37.78, 0.00, 0.00, 0.000, 0.000, 0.000, 14:44:38.713
52, -22.42, 40.69, 0.00, 0.00, 0.000, 0.000, 0.000, 14:44:38.713
53, -23.51, 43.83, 0.00, 0.00, 0.000, 0.000, 0.000, 14:44:38.714
54, -25.21, 40.65, 0.00, 0.00, 0.000, 0.000, 0.000, 14:44:38.714
55, -27.11, 41.94, 0.00, 0.00, 0.000, 0.000, 0.000, 14:44:38.728
56, -19.29, 41.11, 0.00, 0.00, 0.000, 0.000, 0.000, 14:44:38.729
57, -20.96, 40.02, 0.00, 0.00, 0.000, 0.000, 0.000, 14:44:38.743
58, -20.84, 39.52, 0.00, 0.00, 0.000, 0.000, 0.000, 14:44:38.743
59, -23.21, 40.97, 0.00, 0.00, 0.000, 0.000, 0.000, 14:44:38.743
60, -20.43, 43.49, 0.00, 0.00, 0.000, 0.000, 0.000, 14:44:38.743
61, -19.54, 51.07, 0.00, 0.00, 0.000, 0.000, 0.000, 14:44:38.758
62, -23.45, 43.73, 0.00, 0.00, 0.000, 0.000, 0.000, 14:44:38.758
63, -27.11, 42.52, 0.00, 0.00, 0.000, 0.000, 0.000, 14:44:38.773
64, -19.12, 42.43, 0.00, 0.00, 0.000, 0.000, 0.000, 14:44:38.773
65, -18.92, 43.86, 0.00, 0.00, 0.000, 0.000, 0.000, 14:44:38.773
66, -22.57, 42.04, 0.00, 0.00, 0.000, 0.000, 0.000, 14:44:38.773
67, -24.87, 42.37, 0.00, 0.00, 0.000, 0.000, 0.000, 14:44:38.788
68, -19.77, 39.76, 0.00, 0.00, 0.000, 0.000, 0.000, 14:44:38.788
69, -19.69, 43.73, 0.00, 0.00, 0.000, 0.000, 0.000, 14:44:38.803
70, -25.79, 41.80, 0.00, 0.00, 0.000, 0.000, 0.000, 14:44:38.803
71, -21.79, 44.27, 0.00, 0.00, 0.000, 0.000, 0.000, 14:44:38.803
72, -24.87, 51.34, 0.00, 0.00, 0.000, 0.000, 0.000, 14:44:38.803
73, -22.46, 47.55, 0.00, 0.00, 0.000, 0.000, 0.000, 14:44:38.818
74, -23.71, 41.76, 0.00, 0.00, 0.000, 0.000, 0.000, 14:44:38.818
75, -25.89, 44.75, 0.00, 0.00, 0.000, 0.000, 0.000, 14:44:38.833
76, -23.32, 44.36, 0.00, 0.00, 0.000, 0.000, 0.000, 14:44:38.833
77, -22.91, 44.48, 0.00, 0.00, 0.000, 0.000, 0.000, 14:44:38.833
78, -27.04, 41.90, 0.00, 0.00, 0.000, 0.000, 0.000, 14:44:38.833
79, -26.16, 46.97, 0.00, 0.00, 0.000, 0.000, 0.000, 14:44:38.849
80, -20.70, 48.55, 0.00, 0.00, 0.000, 0.000, 0.000, 14:44:38.849
81, -25.64, 47.67, 0.00, 0.00, 0.000, 0.000, 0.000, 14:44:38.863
82, -25.43, 47.52, 0.00, 0.00, 0.000, 0.000, 0.000, 14:44:38.863
83, -25.64, 46.32, 0.00, 0.00, 0.000, 0.000, 0.000, 14:44:38.870
84, -18.36, 48.75, 0.00, 0.00, 0.000, 0.000, 0.000, 14:44:38.871
85, -25.23, 47.10, 0.00, 0.00, 0.000, 0.000, 0.000, 14:44:38.879
86, -25.83, 37.76, 0.00, 0.00, 0.000, 0.000, 0.000, 14:44:38.879
87, -21.48, 41.67, 0.00, 0.00, 0.000, 0.000, 0.000, 14:44:38.892
88, -23.51, 50.24, 0.00, 0.00, 0.000, 0.000, 0.000, 14:44:38.892
89, -19.85, 43.68, 0.00, 0.00, 0.000, 0.000, 0.000, 14:44:38.893
90, -24.11, 48.04, 0.00, 0.00, 0.000, 0.000, 0.000, 14:44:38.893
91, -23.42, 45.16, 0.00, 0.00, 0.000, 0.000, 0.000, 14:44:38.907
92, -20.33, 47.94, 0.00, 0.00, 0.000, 0.000, 0.000, 14:44:38.908
93, -24.07, 49.52, 0.00, 0.00, 0.000, 0.000, 0.000, 14:44:38.923
94, -28.37, 44.81, 0.00, 0.00, 0.000, 0.000, 0.000, 14:44:38.923
95, -28.14, 42.81, 0.00, 0.00, 0.000, 0.000, 0.000, 14:44:38.923
96, -25.23, 44.19, 0.00, 0.00, 0.000, 0.000, 0.000, 14:44:38.924
97, -24.83, 48.15, 0.00, 0.00, 0.000, 0.000, 0.000, 14:44:38.938
98, -27.82, 39.77, 0.00, 0.00, 0.000, 0.000, 0.000, 14:44:38.938
99, -29.56, 40.48, 0.00, 0.00, 0.000, 0.000, 0.000, 14:44:38.955
100, -23.82, 48.75, 0.00, 0.00, 0.000, 0.000, 0.000, 14:44:38.956
101, -26.74, 45.12, 0.00, 0.00, 0.000, 0.000, 0.000, 14:44:38.956
102, -25.35, 42.14, 0.00, 0.00, 0.000, 0.000, 0.000, 14:44:38.956
103, -25.68, 41.91, 0.00, 0.00, 0.000, 0.000, 0.000, 14:44:38.968
104, -21.35, 41.61, 0.00, 0.00, 0.000, 0.000, 0.000, 14:44:38.968
105, -25.54, 45.42, 0.00, 0.00, 0.000, 0.000, 0.000, 14:44:38.983
106, -27.29, 40.91, 0.00, 0.00, 0.000, 0.000, 0.000, 14:44:38.983
107, -29.21, 41.44, 0.00, 0.00, 0.000, 0.000, 0.000, 14:44:38.983
108, -27.39, 45.07, 0.00, 0.00, 0.000, 0.000, 0.000, 14:44:38.984
109, -25.01, 48.15, 0.00, 0.00, 0.000, 0.000, 0.000, 14:44:38.999
110, -25.64, 43.14, 0.00, 0.00, 0.000, 0.000, 0.000, 14:44:38.999
111, -30.12, 41.48, 0.00, 0.00, 0.000, 0.000, 0.000, 14:44:39.013
112, -25.74, 44.33, 0.00, 0.00, 0.000, 0.000, 0.000, 14:44:39.014
113, -27.15, 49.76, 0.00, 0.00, 0.000, 0.000, 0.000, 14:44:39.014
114, -29.03, 46.54, 0.00, 0.00, 0.000, 0.000, 0.000, 14:44:39.014
115, -28.32, 44.61, 0.00, 0.00, 0.000, 0.000, 0.000, 14:44:39.029
116, -22.67, 48.27, 0.00, 0.00, 0.000, 0.000, 0.000, 14:44:39.029
117, -21.92, 48.50, 0.00, 0.00, 0.000, 0.000, 0.000, 14:44:39.044
118, -24.73, 45.37, 0.00, 0.00, 0.000, 0.000, 0.000, 14:44:39.044
119, -23.33, 44.73, 0.00, 0.00, 0.000, 0.000, 0.000, 14:44:39.044
120, -19.40, 43.70, 0.00, 0.00, 0.000, 0.000, 0.000, 14:44:39.044
121, -21.07, 40.87, 0.00, 0.00, 0.000, 0.000, 0.000, 14:44:39.058
122, -25.21, 39.48, 0.00, 0.00, 0.000, 0.000, 0.000, 14:44:39.059
123, -24.17, 42.62, 0.00, 0.00, 0.000, 0.000, 0.000, 14:44:39.073
124, -23.72, 48.04, 0.00, 0.00, 0.000, 0.000, 0.000, 14:44:39.073
125, -22.24, 43.61, 0.00, 0.00, 0.000, 0.000, 0.000, 14:44:39.073
126, -25.51, 39.17, 0.00, 0.00, 0.000, 0.000, 0.000, 14:44:39.073
127, -21.57, 37.83, 0.00, 0.00, 0.000, 0.000, 0.000, 14:44:39.088
128, -21.02, 43.61, 0.00, 0.00, 0.000, 0.000, 0.000, 14:44:39.088
129, -20.75, 43.34, 0.00, 0.00, 0.000, 0.000, 0.000, 14:44:39.103
130, -26.06, 41.92, 0.00, 0.00, 0.000, 0.000, 0.000, 14:44:39.103
131, -26.37, 40.96, 0.00, 0.00, 0.000, 0.000, 0.000, 14:44:39.104
132, -22.83, 49.83, 0.00, 0.00, 0.000, 0.000, 0.000, 14:44:39.104
133, -22.09, 50.00, 0.00, 0.00, 0.000, 0.000, 0.000, 14:44:39.119
134, -26.64, 39.71, 0.00, 0.00, 0.000, 0.000, 0.000, 14:44:39.119
135, -21.82, 42.48, 0.00, 0.00, 0.000, 0.000, 0.000, 14:44:39.134
136, -22.27, 46.20, 0.00, 0.00, 0.000, 0.000, 0.000, 14:44:39.134
137, -20.75, 46.02, 0.00, 0.00, 0.000, 0.000, 0.000, 14:44:39.134
138, -24.83, 46.56, 0.00, 0.00, 0.000, 0.000, 0.000, 14:44:39.134
139, -24.27, 47.15, 0.00, 0.00, 0.000, 0.000, 0.000, 14:44:39.149
140, -22.59, 44.78, 0.00, 0.00, 0.000, 0.000, 0.000, 14:44:39.150
141, -21.45, 44.98, 0.00, 0.00, 0.000, 0.000, 0.000, 14:44:39.163
142, -26.72, 44.94, 0.00, 0.00, 0.000, 0.000, 0.000, 14:44:39.163
143, -27.26, 39.02, 0.00, 0.00, 0.000, 0.000, 0.000, 14:44:39.163
144, -21.39, 37.42, 0.00, 0.00, 0.000, 0.000, 0.000, 14:44:39.164
145, -25.58, 41.11, 0.00, 0.00, 0.000, 0.000, 0.000, 14:44:39.177
146, -26.39, 36.12, 0.00, 0.00, 0.000, 0.000, 0.000, 14:44:39.178
147, -23.63, 43.83, 0.00, 0.00, 0.000, 0.000, 0.000, 14:44:39.193
148, -21.94, 50.11, 0.00, 0.00, 0.000, 0.000, 0.000, 14:44:39.193
149, -23.57, 43.08, 0.00, 0.00, 0.000, 0.000, 0.000, 14:44:39.193
150, -26.16, 39.98, 0.00, 0.00, 0.000, 0.000, 0.000, 14:44:39.193
151, -22.31, 37.80, 0.00, 0.00, 0.000, 0.000, 0.000, 14:44:39.208
152, -24.82, 42.49, 0.00, 0.00, 0.000, 0.000, 0.000, 14:44:39.208
153, -27.42, 42.68, 0.00, 0.00, 0.000, 0.000, 0.000, 14:44:39.223
154, -25.36, 43.67, 0.00, 0.00, 0.000, 0.000, 0.000, 14:44:39.223
155, -23.95, 46.53, 0.00, 0.00, 0.000, 0.000, 0.000, 14:44:39.224
156, -24.44, 46.44, 0.00, 0.00, 0.000, 0.000, 0.000, 14:44:39.224
157, -25.71, 49.91, 0.00, 0.00, 0.000, 0.000, 0.000, 14:44:39.238
158, -28.01, 44.27, 0.00, 0.00, 0.000, 0.000, 0.000, 14:44:39.238
159, -27.55, 43.65, 0.00, 0.00, 0.000, 0.000, 0.000, 14:44:39.254
160, -27.24, 49.46, 0.00, 0.00, 0.000, 0.000, 0.000, 14:44:39.254
161, -23.34, 53.06, 0.00, 0.00, 0.000, 0.000, 0.000, 14:44:39.254
162, -26.79, 42.60, 0.00, 0.00, 0.000, 0.000, 0.000, 14:44:39.254
163, -23.32, 40.36, 0.00, 0.00, 0.000, 0.000, 0.000, 14:44:39.268
164, -25.33, 48.79, 0.00, 0.00, 0.000, 0.000, 0.000, 14:44:39.268
165, -24.72, 51.40, 0.00, 0.00, 0.000, 0.000, 0.000, 14:44:39.284
166, -28.79, 47.42, 0.00, 0.00, 0.000, 0.000, 0.000, 14:44:39.284
167, -27.17, 49.52, 0.00, 0.00, 0.000, 0.000, 0.000, 14:44:39.284
168, -23.96, 54.85, 0.00, 0.00, 0.000, 0.000, 0.000, 14:44:39.284
169, -24.60, 53.35, 0.00, 0.00, 0.000, 0.000, 0.000, 14:44:39.298
170, -29.33, 46.57, 0.00, 0.00, 0.000, 0.000, 0.000, 14:44:39.298
171, -29.93, 48.23, 0.00, 0.00, 0.000, 0.000, 0.000, 14:44:39.314
172, -24.96, 47.79, 0.00, 0.00, 0.000, 0.000, 0.000, 14:44:39.314
173, -27.48, 46.43, 0.00, 0.00, 0.000, 0.000, 0.000, 14:44:39.314
174, -25.95, 47.37, 0.00, 0.00, 0.000, 0.000, 0.000, 14:44:39.314
175, -27.63, 42.16, 0.00, 0.00, 0.000, 0.000, 0.000, 14:44:39.329
176, -25.11, 47.16, 0.00, 0.00, 0.000, 0.000, 0.000, 14:44:39.329
177, -25.68, 45.28, 0.00, 0.00, 0.000, 0.000, 0.000, 14:44:39.344
178, -30.74, 38.51, 0.00, 0.00, 0.000, 0.000, 0.000, 14:44:39.344
179, -27.85, 45.32, 0.00, 0.00, 0.000, 0.000, 0.000, 14:44:39.344
180, -24.40, 51.76, 0.00, 0.00, 0.000, 0.000, 0.000, 14:44:39.344
181, -26.32, 47.16, 0.00, 0.00, 0.000, 0.000, 0.000, 14:44:39.360
182, -30.15, 41.59, 0.00, 0.00, 0.000, 0.000, 0.000, 14:44:39.360
183, -28.64, 40.84, 0.00, 0.00, 0.000, 0.000, 0.000, 14:44:39.373
184, -25.53, 41.08, 0.00, 0.00, 0.000, 0.000, 0.000, 14:44:39.374
185, -25.71, 40.46, 0.00, 0.00, 0.000, 0.000, 0.000, 14:44:39.381
186, -25.55, 39.60, 0.00, 0.00, 0.000, 0.000, 0.000, 14:44:39.381
187, -28.54, 45.47, 0.00, 0.00, 0.000, 0.000, 0.000, 14:44:39.390
188, -25.92, 51.65, 0.00, 0.00, 0.000, 0.000, 0.000, 14:44:39.390
189, -25.84, 43.70, 0.00, 0.00, 0.000, 0.000, 0.000, 14:44:39.404
190, -25.58, 42.46, 0.00, 0.00, 0.000, 0.000, 0.000, 14:44:39.404
191, -24.34, 43.58, 0.00, 0.00, 0.000, 0.000, 0.000, 14:44:39.404
192, -23.20, 47.05, 0.00, 0.00, 0.000, 0.000, 0.000, 14:44:39.404
193, -25.90, 43.59, 0.00, 0.00, 0.000, 0.000, 0.000, 14:44:39.418
