%OpenBCI Raw EEG Data
%
%Sample Rate = 200.0 Hz
%First Column = SampleIndex
%Last Column = Timestamp 
%Other Columns = EEG data in microvolts followed by Accel Data (in G) interleaved with Aux Data
0, -15.37, 36.47, 0.00, 0.00, 0.000, 0.000, 0.000, 14:02:18.625
1, -3.88, 42.19, 0.00, 0.00, 0.000, 0.000, 0.000, 14:02:18.639
2, -4.80, 43.89, 0.00, 0.00, 0.000, 0.000, 0.000, 14:02:18.640
3, -4.85, 35.15, 0.00, 0.00, 0.000, 0.000, 0.000, 14:02:18.653
4, -7.64, 36.92, 0.00, 0.00, 0.000, 0.000, 0.000, 14:02:18.653
5, -2.01, 45.83, 0.00, 0.00, 0.000, 0.000, 0.000, 14:02:18.653
6, -4.34, 45.91, 0.00, 0.00, 0.000, 0.000, 0.000, 14:02:18.653
7, -5.64, 35.25, 0.00, 0.00, 0.000, 0.000, 0.000, 14:02:18.674
8, -8.27, 40.23, 0.00, 0.00, 0.000, 0.000, 0.000, 14:02:18.674
9, -0.67, 45.54, 0.00, 0.00, 0.000, 0.000, 0.000, 14:02:18.683
10, -0.96, 42.69, 0.00, 0.00, 0.000, 0.000, 0.000, 14:02:18.683
11, -6.59, 35.96, 0.00, 0.00, 0.000, 0.000, 0.000, 14:02:18.683
12, -8.19, 36.32, 0.00, 0.00, 0.000, 0.000, 0.000, 14:02:18.683
13, -4.38, 43.09, 0.00, 0.00, 0.000, 0.000, 0.000, 14:02:18.697
14, -3.26, 43.25, 0.00, 0.00, 0.000, 0.000, 0.000, 14:02:18.697
15, -7.33, 37.07, 0.00, 0.00, 0.000, 0.000, 0.000, 14:02:18.713
16, -6.37, 38.20, 0.00, 0.00, 0.000, 0.000, 0.000, 14:02:18.713
17, -1.68, 44.80, 0.00, 0.00, 0.000, 0.000, 0.000, 14:02:18.713
18, -5.28, 44.44, 0.00, 0.00, 0.000, 0.000, 0.000, 14:02:18.713
19, -11.01, 37.24, 0.00, 0.00, 0.000, 0.000, 0.000, 14:02:18.728
20, -9.94, 39.30, 0.00, 0.00, 0.000, 0.000, 0.000, 14:02:18.728
21, -4.17, 43.31, 0.00, 0.00, 0.000, 0.000, 0.000, 14:02:18.743
22, -5.03, 44.21, 0.00, 0.00, 0.000, 0.000, 0.000, 14:02:18.743
23, -9.65, 37.45, 0.00, 0.00, 0.000, 0.000, 0.000, 14:02:18.744
24, -5.11, 39.00, 0.00, 0.00, 0.000, 0.000, 0.000, 14:02:18.744
25, -4.02, 47.42, 0.00, 0.00, 0.000, 0.000, 0.000, 14:02:18.758
26, -2.92, 47.83, 0.00, 0.00, 0.000, 0.000, 0.000, 14:02:18.758
27, -9.28, 35.64, 0.00, 0.00, 0.000, 0.000, 0.000, 14:02:18.772
28, -7.02, 37.67, 0.00, 0.00, 0.000, 0.000, 0.000, 14:02:18.772
29, -4.72, 43.48, 0.00, 0.00, 0.000, 0.000, 0.000, 14:02:18.773
30, -6.92, 44.59, 0.00, 0.00, 0.000, 0.000, 0.000, 14:02:18.773
31, -12.10, 36.48, 0.00, 0.00, 0.000, 0.000, 0.000, 14:02:18.788
32, -7.20, 38.29, 0.00, 0.00, 0.000, 0.000, 0.000, 14:02:18.788
33, -5.25, 41.40, 0.00, 0.00, 0.000, 0.000, 0.000, 14:02:18.803
34, -3.75, 45.81, 0.00, 0.00, 0.000, 0.000, 0.000, 14:02:18.803
35, -8.70, 35.97, 0.00, 0.00, 0.000, 0.000, 0.000, 14:02:18.804
36, -7.09, 36.08, 0.00, 0.00, 0.000, 0.000, 0.000, 14:02:18.804
37, -5.48, 45.34, 0.00, 0.00, 0.000, 0.000, 0.000, 14:02:18.818
38, -4.55, 45.66, 0.00, 0.00, 0.000, 0.000, 0.000, 14:02:18.818
39, -8.32, 36.40, 0.00, 0.00, 0.000, 0.000, 0.000, 14:02:18.832
40, -7.41, 40.17, 0.00, 0.00, 0.000, 0.000, 0.000, 14:02:18.833
41, -0.99, 45.92, 0.00, 0.00, 0.000, 0.000, 0.000, 14:02:18.833
42, -3.33, 45.36, 0.00, 0.00, 0.000, 0.000, 0.000, 14:02:18.833
43, -4.64, 42.33, 0.00, 0.00, 0.000, 0.000, 0.000, 14:02:18.847
44, -5.85, 38.85, 0.00, 0.00, 0.000, 0.000, 0.000, 14:02:18.847
45, 2.02, 48.81, 0.00, 0.00, 0.000, 0.000, 0.000, 14:02:18.863
46, -2.37, 45.54, 0.00, 0.00, 0.000, 0.000, 0.000, 14:02:18.863
47, -7.77, 39.52, 0.00, 0.00, 0.000, 0.000, 0.000, 14:02:18.863
48, -7.10, 39.04, 0.00, 0.00, 0.000, 0.000, 0.000, 14:02:18.864
49, -4.23, 45.76, 0.00, 0.00, 0.000, 0.000, 0.000, 14:02:18.878
50, -3.18, 41.24, 0.00, 0.00, 0.000, 0.000, 0.000, 14:02:18.878
51, -5.38, 30.87, 0.00, 0.00, 0.000, 0.000, 0.000, 14:02:18.892
52, -5.78, 35.04, 0.00, 0.00, 0.000, 0.000, 0.000, 14:02:18.892
53, -4.23, 41.97, 0.00, 0.00, 0.000, 0.000, 0.000, 14:02:18.893
54, -3.76, 40.03, 0.00, 0.00, 0.000, 0.000, 0.000, 14:02:18.893
55, -6.64, 32.36, 0.00, 0.00, 0.000, 0.000, 0.000, 14:02:18.907
56, -6.55, 33.00, 0.00, 0.00, 0.000, 0.000, 0.000, 14:02:18.907
57, -1.58, 42.03, 0.00, 0.00, 0.000, 0.000, 0.000, 14:02:18.922
58, -2.19, 41.20, 0.00, 0.00, 0.000, 0.000, 0.000, 14:02:18.923
59, -5.89, 38.29, 0.00, 0.00, 0.000, 0.000, 0.000, 14:02:18.923
60, -6.75, 35.46, 0.00, 0.00, 0.000, 0.000, 0.000, 14:02:18.923
61, -2.70, 43.06, 0.00, 0.00, 0.000, 0.000, 0.000, 14:02:18.944
62, -3.86, 40.69, 0.00, 0.00, 0.000, 0.000, 0.000, 14:02:18.945
63, -8.65, 33.67, 0.00, 0.00, 0.000, 0.000, 0.000, 14:02:18.953
64, -5.22, 35.46, 0.00, 0.00, 0.000, 0.000, 0.000, 14:02:18.953
65, -1.33, 42.57, 0.00, 0.00, 0.000, 0.000, 0.000, 14:02:18.953
66, -2.56, 40.37, 0.00, 0.00, 0.000, 0.000, 0.000, 14:02:18.953
67, -5.60, 31.59, 0.00, 0.00, 0.000, 0.000, 0.000, 14:02:18.969
68, -4.13, 31.18, 0.00, 0.00, 0.000, 0.000, 0.000, 14:02:18.969
69, 0.71, 42.24, 0.00, 0.00, 0.000, 0.000, 0.000, 14:02:18.982
70, 1.33, 37.61, 0.00, 0.00, 0.000, 0.000, 0.000, 14:02:18.982
71, -5.27, 32.51, 0.00, 0.00, 0.000, 0.000, 0.000, 14:02:18.983
72, -6.37, 32.29, 0.00, 0.00, 0.000, 0.000, 0.000, 14:02:18.983
73, -1.16, 41.56, 0.00, 0.00, 0.000, 0.000, 0.000, 14:02:18.999
74, -5.61, 39.05, 0.00, 0.00, 0.000, 0.000, 0.000, 14:02:18.999
75, -7.36, 31.19, 0.00, 0.00, 0.000, 0.000, 0.000, 14:02:19.012
76, -6.16, 35.50, 0.00, 0.00, 0.000, 0.000, 0.000, 14:02:19.012
77, -0.52, 44.47, 0.00, 0.00, 0.000, 0.000, 0.000, 14:02:19.012
78, -2.66, 44.44, 0.00, 0.00, 0.000, 0.000, 0.000, 14:02:19.012
79, -7.15, 32.01, 0.00, 0.00, 0.000, 0.000, 0.000, 14:02:19.027
80, -6.71, 34.06, 0.00, 0.00, 0.000, 0.000, 0.000, 14:02:19.027
81, 0.89, 42.85, 0.00, 0.00, 0.000, 0.000, 0.000, 14:02:19.043
82, -1.59, 43.64, 0.00, 0.00, 0.000, 0.000, 0.000, 14:02:19.043
83, -7.75, 35.73, 0.00, 0.00, 0.000, 0.000, 0.000, 14:02:19.043
84, -8.07, 38.22, 0.00, 0.00, 0.000, 0.000, 0.000, 14:02:19.043
85, -2.83, 45.87, 0.00, 0.00, 0.000, 0.000, 0.000, 14:02:19.057
86, -1.25, 44.81, 0.00, 0.00, 0.000, 0.000, 0.000, 14:02:19.057
87, -7.86, 38.98, 0.00, 0.00, 0.000, 0.000, 0.000, 14:02:19.072
88, -6.52, 37.57, 0.00, 0.00, 0.000, 0.000, 0.000, 14:02:19.073
89, -2.26, 41.00, 0.00, 0.00, 0.000, 0.000, 0.000, 14:02:19.073
90, -3.38, 42.82, 0.00, 0.00, 0.000, 0.000, 0.000, 14:02:19.073
91, -13.70, 35.40, 0.00, 0.00, 0.000, 0.000, 0.000, 14:02:19.088
92, -8.47, 38.31, 0.00, 0.00, 0.000, 0.000, 0.000, 14:02:19.088
93, -5.46, 44.05, 0.00, 0.00, 0.000, 0.000, 0.000, 14:02:19.103
94, -3.96, 45.52, 0.00, 0.00, 0.000, 0.000, 0.000, 14:02:19.103
95, -8.02, 37.47, 0.00, 0.00, 0.000, 0.000, 0.000, 14:02:19.104
96, -8.97, 37.09, 0.00, 0.00, 0.000, 0.000, 0.000, 14:02:19.104
97, -6.20, 45.52, 0.00, 0.00, 0.000, 0.000, 0.000, 14:02:19.118
98, -7.03, 43.29, 0.00, 0.00, 0.000, 0.000, 0.000, 14:02:19.118
99, -9.16, 31.60, 0.00, 0.00, 0.000, 0.000, 0.000, 14:02:19.133
100, -4.67, 37.22, 0.00, 0.00, 0.000, 0.000, 0.000, 14:02:19.133
101, -4.36, 42.64, 0.00, 0.00, 0.000, 0.000, 0.000, 14:02:19.133
102, -6.04, 41.17, 0.00, 0.00, 0.000, 0.000, 0.000, 14:02:19.133
103, -8.50, 37.87, 0.00, 0.00, 0.000, 0.000, 0.000, 14:02:19.147
104, -7.61, 36.87, 0.00, 0.00, 0.000, 0.000, 0.000, 14:02:19.148
105, -1.81, 41.55, 0.00, 0.00, 0.000, 0.000, 0.000, 14:02:19.163
106, -1.08, 41.35, 0.00, 0.00, 0.000, 0.000, 0.000, 14:02:19.163
107, -9.33, 34.54, 0.00, 0.00, 0.000, 0.000, 0.000, 14:02:19.163
108, -4.09, 34.61, 0.00, 0.00, 0.000, 0.000, 0.000, 14:02:19.163
109, -3.75, 39.56, 0.00, 0.00, 0.000, 0.000, 0.000, 14:02:19.178
110, -3.66, 41.25, 0.00, 0.00, 0.000, 0.000, 0.000, 14:02:19.178
111, -7.32, 30.85, 0.00, 0.00, 0.000, 0.000, 0.000, 14:02:19.193
112, -4.01, 31.18, 0.00, 0.00, 0.000, 0.000, 0.000, 14:02:19.193
113, -0.79, 38.87, 0.00, 0.00, 0.000, 0.000, 0.000, 14:02:19.193
114, -4.27, 39.45, 0.00, 0.00, 0.000, 0.000, 0.000, 14:02:19.193
115, -6.16, 33.92, 0.00, 0.00, 0.000, 0.000, 0.000, 14:02:19.207
116, -7.40, 35.06, 0.00, 0.00, 0.000, 0.000, 0.000, 14:02:19.207
117, -3.31, 42.41, 0.00, 0.00, 0.000, 0.000, 0.000, 14:02:19.222
118, -2.11, 43.22, 0.00, 0.00, 0.000, 0.000, 0.000, 14:02:19.223
119, -6.01, 33.92, 0.00, 0.00, 0.000, 0.000, 0.000, 14:02:19.223
120, -7.70, 35.34, 0.00, 0.00, 0.000, 0.000, 0.000, 14:02:19.223
121, -3.27, 41.88, 0.00, 0.00, 0.000, 0.000, 0.000, 14:02:19.237
122, -4.70, 36.75, 0.00, 0.00, 0.000, 0.000, 0.000, 14:02:19.238
123, -9.39, 28.65, 0.00, 0.00, 0.000, 0.000, 0.000, 14:02:19.252
124, -7.62, 31.95, 0.00, 0.00, 0.000, 0.000, 0.000, 14:02:19.252
125, -1.78, 43.94, 0.00, 0.00, 0.000, 0.000, 0.000, 14:02:19.252
126, -1.69, 38.52, 0.00, 0.00, 0.000, 0.000, 0.000, 14:02:19.292
127, -8.38, 34.50, 0.00, 0.00, 0.000, 0.000, 0.000, 14:02:19.292
128, -10.27, 32.61, 0.00, 0.00, 0.000, 0.000, 0.000, 14:02:19.293
129, -2.57, 43.58, 0.00, 0.00, 0.000, 0.000, 0.000, 14:02:19.293
130, -4.30, 40.24, 0.00, 0.00, 0.000, 0.000, 0.000, 14:02:19.293
131, -7.87, 32.07, 0.00, 0.00, 0.000, 0.000, 0.000, 14:02:19.293
132, -8.79, 35.37, 0.00, 0.00, 0.000, 0.000, 0.000, 14:02:19.293
133, -4.16, 45.75, 0.00, 0.00, 0.000, 0.000, 0.000, 14:02:19.297
134, -4.64, 39.92, 0.00, 0.00, 0.000, 0.000, 0.000, 14:02:19.298
135, -10.25, 31.92, 0.00, 0.00, 0.000, 0.000, 0.000, 14:02:19.313
136, -7.14, 33.62, 0.00, 0.00, 0.000, 0.000, 0.000, 14:02:19.313
137, -6.57, 42.49, 0.00, 0.00, 0.000, 0.000, 0.000, 14:02:19.313
138, -5.19, 41.58, 0.00, 0.00, 0.000, 0.000, 0.000, 14:02:19.313
139, -10.48, 36.39, 0.00, 0.00, 0.000, 0.000, 0.000, 14:02:19.327
140, -9.85, 36.93, 0.00, 0.00, 0.000, 0.000, 0.000, 14:02:19.327
141, -5.93, 40.19, 0.00, 0.00, 0.000, 0.000, 0.000, 14:02:19.343
142, -8.67, 38.11, 0.00, 0.00, 0.000, 0.000, 0.000, 14:02:19.343
143, -15.92, 33.69, 0.00, 0.00, 0.000, 0.000, 0.000, 14:02:19.343
144, -14.43, 35.25, 0.00, 0.00, 0.000, 0.000, 0.000, 14:02:19.343
145, -7.93, 43.81, 0.00, 0.00, 0.000, 0.000, 0.000, 14:02:19.359
146, -8.16, 37.92, 0.00, 0.00, 0.000, 0.000, 0.000, 14:02:19.359
147, -13.15, 31.76, 0.00, 0.00, 0.000, 0.000, 0.000, 14:02:19.372
148, -8.27, 32.13, 0.00, 0.00, 0.000, 0.000, 0.000, 14:02:19.372
149, -3.19, 42.43, 0.00, 0.00, 0.000, 0.000, 0.000, 14:02:19.373
150, -5.52, 41.09, 0.00, 0.00, 0.000, 0.000, 0.000, 14:02:19.373
151, -12.10, 30.75, 0.00, 0.00, 0.000, 0.000, 0.000, 14:02:19.388
152, -10.45, 31.77, 0.00, 0.00, 0.000, 0.000, 0.000, 14:02:19.388
153, -3.86, 43.13, 0.00, 0.00, 0.000, 0.000, 0.000, 14:02:19.403
154, -6.01, 39.77, 0.00, 0.00, 0.000, 0.000, 0.000, 14:02:19.403
155, -12.99, 31.54, 0.00, 0.00, 0.000, 0.000, 0.000, 14:02:19.403
156, -8.27, 37.09, 0.00, 0.00, 0.000, 0.000, 0.000, 14:02:19.403
157, -6.47, 44.56, 0.00, 0.00, 0.000, 0.000, 0.000, 14:02:19.425
158, -5.29, 41.17, 0.00, 0.00, 0.000, 0.000, 0.000, 14:02:19.425
159, -9.99, 34.91, 0.00, 0.00, 0.000, 0.000, 0.000, 14:02:19.433
160, -9.80, 36.66, 0.00, 0.00, 0.000, 0.000, 0.000, 14:02:19.433
161, -8.82, 46.44, 0.00, 0.00, 0.000, 0.000, 0.000, 14:02:19.433
162, -8.10, 42.00, 0.00, 0.00, 0.000, 0.000, 0.000, 14:02:19.433
163, -9.96, 34.36, 0.00, 0.00, 0.000, 0.000, 0.000, 14:02:19.447
164, -7.16, 33.53, 0.00, 0.00, 0.000, 0.000, 0.000, 14:02:19.448
165, -3.32, 44.10, 0.00, 0.00, 0.000, 0.000, 0.000, 14:02:19.462
166, -5.14, 45.69, 0.00, 0.00, 0.000, 0.000, 0.000, 14:02:19.462
167, -8.60, 39.84, 0.00, 0.00, 0.000, 0.000, 0.000, 14:02:19.462
168, -8.66, 39.87, 0.00, 0.00, 0.000, 0.000, 0.000, 14:02:19.463
169, -4.06, 45.41, 0.00, 0.00, 0.000, 0.000, 0.000, 14:02:19.477
170, -4.32, 45.06, 0.00, 0.00, 0.000, 0.000, 0.000, 14:02:19.478
171, -7.84, 35.59, 0.00, 0.00, 0.000, 0.000, 0.000, 14:02:19.494
172, -10.25, 36.74, 0.00, 0.00, 0.000, 0.000, 0.000, 14:02:19.494
173, -4.02, 46.37, 0.00, 0.00, 0.000, 0.000, 0.000, 14:02:19.494
174, -2.53, 41.61, 0.00, 0.00, 0.000, 0.000, 0.000, 14:02:19.494
175, -6.47, 38.10, 0.00, 0.00, 0.000, 0.000, 0.000, 14:02:19.507
176, -5.35, 34.81, 0.00, 0.00, 0.000, 0.000, 0.000, 14:02:19.507
177, -1.54, 41.54, 0.00, 0.00, 0.000, 0.000, 0.000, 14:02:19.523
178, -1.36, 40.20, 0.00, 0.00, 0.000, 0.000, 0.000, 14:02:19.523
179, -7.26, 36.92, 0.00, 0.00, 0.000, 0.000, 0.000, 14:02:19.523
180, -4.60, 36.83, 0.00, 0.00, 0.000, 0.000, 0.000, 14:02:19.523
181, -3.23, 45.59, 0.00, 0.00, 0.000, 0.000, 0.000, 14:02:19.538
182, -3.59, 42.54, 0.00, 0.00, 0.000, 0.000, 0.000, 14:02:19.538
183, -11.62, 31.74, 0.00, 0.00, 0.000, 0.000, 0.000, 14:02:19.553
184, -8.78, 37.34, 0.00, 0.00, 0.000, 0.000, 0.000, 14:02:19.553
185, -6.13, 42.67, 0.00, 0.00, 0.000, 0.000, 0.000, 14:02:19.553
186, -5.72, 45.74, 0.00, 0.00, 0.000, 0.000, 0.000, 14:02:19.553
187, -10.35, 38.27, 0.00, 0.00, 0.000, 0.000, 0.000, 14:02:19.567
188, -11.53, 37.64, 0.00, 0.00, 0.000, 0.000, 0.000, 14:02:19.568
189, -7.69, 44.77, 0.00, 0.00, 0.000, 0.000, 0.000, 14:02:19.581
190, -6.10, 41.86, 0.00, 0.00, 0.000, 0.000, 0.000, 14:02:19.582
191, -13.11, 35.56, 0.00, 0.00, 0.000, 0.000, 0.000, 14:02:19.582
192, -10.26, 33.55, 0.00, 0.00, 0.000, 0.000, 0.000, 14:02:19.582
193, -4.73, 42.43, 0.00, 0.00, 0.000, 0.000, 0.000, 14:02:19.598
194, -3.55, 43.68, 0.00, 0.00, 0.000, 0.000, 0.000, 14:02:19.598
195, -10.19, 37.64, 0.00, 0.00, 0.000, 0.000, 0.000, 14:02:19.612
196, -8.92, 37.66, 0.00, 0.00, 0.000, 0.000, 0.000, 14:02:19.612
197, -7.20, 40.76, 0.00, 0.00, 0.000, 0.000, 0.000, 14:02:19.613
198, -4.80, 41.34, 0.00, 0.00, 0.000, 0.000, 0.000, 14:02:19.613
199, -11.69, 38.59, 0.00, 0.00, 0.000, 0.000, 0.000, 14:02:19.627
200, -12.71, 36.63, 0.00, 0.00, 0.000, 0.000, 0.000, 14:02:19.627
0, -7.59, 42.91, 0.00, 0.00, 0.000, 0.000, 0.000, 14:02:19.627
1, -4.22, 43.76, 0.00, 0.00, 0.000, 0.000, 0.000, 14:02:19.643
2, -11.42, 36.45, 0.00, 0.00, 0.000, 0.000, 0.000, 14:02:19.643
3, -11.01, 35.15, 0.00, 0.00, 0.000, 0.000, 0.000, 14:02:19.657
4, -6.37, 44.32, 0.00, 0.00, 0.000, 0.000, 0.000, 14:02:19.657
5, -1.59, 46.71, 0.00, 0.00, 0.000, 0.000, 0.000, 14:02:19.657
6, -5.68, 37.43, 0.00, 0.00, 0.000, 0.000, 0.000, 14:02:19.658
7, -5.17, 37.83, 0.00, 0.00, 0.000, 0.000, 0.000, 14:02:19.672
8, -4.70, 46.49, 0.00, 0.00, 0.000, 0.000, 0.000, 14:02:19.672
9, -4.72, 42.22, 0.00, 0.00, 0.000, 0.000, 0.000, 14:02:19.688
10, -8.50, 35.79, 0.00, 0.00, 0.000, 0.000, 0.000, 14:02:19.688
11, -6.58, 36.13, 0.00, 0.00, 0.000, 0.000, 0.000, 14:02:19.688
12, -6.64, 41.80, 0.00, 0.00, 0.000, 0.000, 0.000, 14:02:19.688
13, -5.12, 42.95, 0.00, 0.00, 0.000, 0.000, 0.000, 14:02:19.702
14, -14.00, 30.93, 0.00, 0.00, 0.000, 0.000, 0.000, 14:02:19.702
15, -11.91, 35.74, 0.00, 0.00, 0.000, 0.000, 0.000, 14:02:19.718
16, -5.46, 42.82, 0.00, 0.00, 0.000, 0.000, 0.000, 14:02:19.718
17, -4.62, 40.98, 0.00, 0.00, 0.000, 0.000, 0.000, 14:02:19.718
18, -9.95, 29.52, 0.00, 0.00, 0.000, 0.000, 0.000, 14:02:19.718
19, -7.92, 32.56, 0.00, 0.00, 0.000, 0.000, 0.000, 14:02:19.732
20, -6.42, 41.63, 0.00, 0.00, 0.000, 0.000, 0.000, 14:02:19.732
21, -3.70, 39.27, 0.00, 0.00, 0.000, 0.000, 0.000, 14:02:19.748
22, -6.14, 29.97, 0.00, 0.00, 0.000, 0.000, 0.000, 14:02:19.748
23, -8.28, 32.50, 0.00, 0.00, 0.000, 0.000, 0.000, 14:02:19.748
24, -2.68, 40.10, 0.00, 0.00, 0.000, 0.000, 0.000, 14:02:19.748
25, -3.63, 38.52, 0.00, 0.00, 0.000, 0.000, 0.000, 14:02:19.763
26, -8.38, 31.22, 0.00, 0.00, 0.000, 0.000, 0.000, 14:02:19.763
27, -7.57, 31.62, 0.00, 0.00, 0.000, 0.000, 0.000, 14:02:19.778
28, -0.53, 39.75, 0.00, 0.00, 0.000, 0.000, 0.000, 14:02:19.778
29, -1.89, 39.51, 0.00, 0.00, 0.000, 0.000, 0.000, 14:02:19.778
30, -5.11, 31.63, 0.00, 0.00, 0.000, 0.000, 0.000, 14:02:19.778
31, -6.64, 33.23, 0.00, 0.00, 0.000, 0.000, 0.000, 14:02:19.792
32, -1.80, 39.99, 0.00, 0.00, 0.000, 0.000, 0.000, 14:02:19.793
33, -4.13, 42.96, 0.00, 0.00, 0.000, 0.000, 0.000, 14:02:19.808
34, -8.26, 33.99, 0.00, 0.00, 0.000, 0.000, 0.000, 14:02:19.808
35, -9.11, 38.32, 0.00, 0.00, 0.000, 0.000, 0.000, 14:02:19.808
36, -5.59, 41.16, 0.00, 0.00, 0.000, 0.000, 0.000, 14:02:19.808
37, -7.18, 42.73, 0.00, 0.00, 0.000, 0.000, 0.000, 14:02:19.822
38, -10.22, 32.74, 0.00, 0.00, 0.000, 0.000, 0.000, 14:02:19.822
39, -7.07, 35.88, 0.00, 0.00, 0.000, 0.000, 0.000, 14:02:19.837
40, -2.91, 41.51, 0.00, 0.00, 0.000, 0.000, 0.000, 14:02:19.838
41, -2.93, 43.83, 0.00, 0.00, 0.000, 0.000, 0.000, 14:02:19.838
42, -7.12, 35.76, 0.00, 0.00, 0.000, 0.000, 0.000, 14:02:19.838
43, -7.08, 35.52, 0.00, 0.00, 0.000, 0.000, 0.000, 14:02:19.852
44, -4.47, 44.23, 0.00, 0.00, 0.000, 0.000, 0.000, 14:02:19.852
45, -6.08, 42.79, 0.00, 0.00, 0.000, 0.000, 0.000, 14:02:19.867
46, -7.14, 33.17, 0.00, 0.00, 0.000, 0.000, 0.000, 14:02:19.868
47, -7.88, 33.86, 0.00, 0.00, 0.000, 0.000, 0.000, 14:02:19.868
48, -3.52, 42.48, 0.00, 0.00, 0.000, 0.000, 0.000, 14:02:19.868
49, -5.84, 39.98, 0.00, 0.00, 0.000, 0.000, 0.000, 14:02:19.883
50, -7.97, 30.40, 0.00, 0.00, 0.000, 0.000, 0.000, 14:02:19.883
51, -7.38, 31.08, 0.00, 0.00, 0.000, 0.000, 0.000, 14:02:19.897
52, -2.24, 40.33, 0.00, 0.00, 0.000, 0.000, 0.000, 14:02:19.897
53, -1.51, 42.12, 0.00, 0.00, 0.000, 0.000, 0.000, 14:02:19.897
54, -8.39, 35.40, 0.00, 0.00, 0.000, 0.000, 0.000, 14:02:19.897
55, -8.39, 35.13, 0.00, 0.00, 0.000, 0.000, 0.000, 14:02:19.919
56, -4.71, 43.39, 0.00, 0.00, 0.000, 0.000, 0.000, 14:02:19.919
57, -3.11, 41.20, 0.00, 0.00, 0.000, 0.000, 0.000, 14:02:19.927
58, -8.77, 38.95, 0.00, 0.00, 0.000, 0.000, 0.000, 14:02:19.927
59, -12.94, 36.17, 0.00, 0.00, 0.000, 0.000, 0.000, 14:02:19.930
60, -3.68, 44.68, 0.00, 0.00, 0.000, 0.000, 0.000, 14:02:19.930
61, -2.95, 44.32, 0.00, 0.00, 0.000, 0.000, 0.000, 14:02:19.943
62, -9.92, 36.65, 0.00, 0.00, 0.000, 0.000, 0.000, 14:02:19.943
63, -7.98, 35.26, 0.00, 0.00, 0.000, 0.000, 0.000, 14:02:19.958
64, -3.68, 44.69, 0.00, 0.00, 0.000, 0.000, 0.000, 14:02:19.958
65, -5.26, 42.29, 0.00, 0.00, 0.000, 0.000, 0.000, 14:02:19.958
66, -8.84, 34.55, 0.00, 0.00, 0.000, 0.000, 0.000, 14:02:19.958
67, -8.39, 37.36, 0.00, 0.00, 0.000, 0.000, 0.000, 14:02:19.972
68, -3.64, 44.23, 0.00, 0.00, 0.000, 0.000, 0.000, 14:02:19.972
69, -2.21, 42.61, 0.00, 0.00, 0.000, 0.000, 0.000, 14:02:19.987
70, -6.79, 38.45, 0.00, 0.00, 0.000, 0.000, 0.000, 14:02:19.987
71, -7.91, 40.04, 0.00, 0.00, 0.000, 0.000, 0.000, 14:02:19.987
72, -1.93, 45.04, 0.00, 0.00, 0.000, 0.000, 0.000, 14:02:19.987
73, -5.36, 45.19, 0.00, 0.00, 0.000, 0.000, 0.000, 14:02:20.002
74, -8.58, 40.93, 0.00, 0.00, 0.000, 0.000, 0.000, 14:02:20.003
75, -6.26, 38.70, 0.00, 0.00, 0.000, 0.000, 0.000, 14:02:20.018
76, -4.97, 45.68, 0.00, 0.00, 0.000, 0.000, 0.000, 14:02:20.018
77, -3.65, 45.58, 0.00, 0.00, 0.000, 0.000, 0.000, 14:02:20.018
78, -9.82, 38.55, 0.00, 0.00, 0.000, 0.000, 0.000, 14:02:20.018
79, -6.47, 39.02, 0.00, 0.00, 0.000, 0.000, 0.000, 14:02:20.032
80, -3.46, 47.51, 0.00, 0.00, 0.000, 0.000, 0.000, 14:02:20.032
81, -3.06, 44.13, 0.00, 0.00, 0.000, 0.000, 0.000, 14:02:20.047
82, -7.87, 36.75, 0.00, 0.00, 0.000, 0.000, 0.000, 14:02:20.047
83, -6.09, 34.75, 0.00, 0.00, 0.000, 0.000, 0.000, 14:02:20.047
84, -2.69, 41.61, 0.00, 0.00, 0.000, 0.000, 0.000, 14:02:20.048
85, -2.89, 41.02, 0.00, 0.00, 0.000, 0.000, 0.000, 14:02:20.063
86, -9.02, 33.55, 0.00, 0.00, 0.000, 0.000, 0.000, 14:02:20.063
87, -7.59, 34.24, 0.00, 0.00, 0.000, 0.000, 0.000, 14:02:20.077
88, -2.58, 42.93, 0.00, 0.00, 0.000, 0.000, 0.000, 14:02:20.077
89, -2.72, 41.20, 0.00, 0.00, 0.000, 0.000, 0.000, 14:02:20.077
90, -7.35, 37.97, 0.00, 0.00, 0.000, 0.000, 0.000, 14:02:20.078
91, -5.41, 37.72, 0.00, 0.00, 0.000, 0.000, 0.000, 14:02:20.092
92, -4.31, 43.47, 0.00, 0.00, 0.000, 0.000, 0.000, 14:02:20.092
93, -1.84, 44.02, 0.00, 0.00, 0.000, 0.000, 0.000, 14:02:20.107
94, -6.63, 37.15, 0.00, 0.00, 0.000, 0.000, 0.000, 14:02:20.107
95, -5.31, 36.61, 0.00, 0.00, 0.000, 0.000, 0.000, 14:02:20.107
96, -2.14, 42.61, 0.00, 0.00, 0.000, 0.000, 0.000, 14:02:20.107
97, -1.32, 43.80, 0.00, 0.00, 0.000, 0.000, 0.000, 14:02:20.122
98, -8.04, 38.04, 0.00, 0.00, 0.000, 0.000, 0.000, 14:02:20.122
99, -9.52, 36.16, 0.00, 0.00, 0.000, 0.000, 0.000, 14:02:20.138
100, -6.15, 38.94, 0.00, 0.00, 0.000, 0.000, 0.000, 14:02:20.138
101, -4.88, 39.82, 0.00, 0.00, 0.000, 0.000, 0.000, 14:02:20.139
102, -11.83, 34.79, 0.00, 0.00, 0.000, 0.000, 0.000, 14:02:20.139
103, -10.67, 34.33, 0.00, 0.00, 0.000, 0.000, 0.000, 14:02:20.153
104, -2.57, 40.52, 0.00, 0.00, 0.000, 0.000, 0.000, 14:02:20.154
105, -3.89, 38.18, 0.00, 0.00, 0.000, 0.000, 0.000, 14:02:20.168
106, -9.47, 31.18, 0.00, 0.00, 0.000, 0.000, 0.000, 14:02:20.168
107, -7.41, 30.60, 0.00, 0.00, 0.000, 0.000, 0.000, 14:02:20.168
108, -2.97, 39.57, 0.00, 0.00, 0.000, 0.000, 0.000, 14:02:20.168
109, -5.72, 42.93, 0.00, 0.00, 0.000, 0.000, 0.000, 14:02:20.183
110, -9.41, 31.53, 0.00, 0.00, 0.000, 0.000, 0.000, 14:02:20.183
111, -8.99, 31.66, 0.00, 0.00, 0.000, 0.000, 0.000, 14:02:20.198
112, -4.94, 41.09, 0.00, 0.00, 0.000, 0.000, 0.000, 14:02:20.198
113, -7.10, 39.54, 0.00, 0.00, 0.000, 0.000, 0.000, 14:02:20.199
114, -5.95, 31.07, 0.00, 0.00, 0.000, 0.000, 0.000, 14:02:20.199
115, -6.93, 33.82, 0.00, 0.00, 0.000, 0.000, 0.000, 14:02:20.227
116, -3.08, 40.96, 0.00, 0.00, 0.000, 0.000, 0.000, 14:02:20.227
117, -3.34, 41.96, 0.00, 0.00, 0.000, 0.000, 0.000, 14:02:20.227
118, -7.98, 31.93, 0.00, 0.00, 0.000, 0.000, 0.000, 14:02:20.227
119, -7.28, 31.89, 0.00, 0.00, 0.000, 0.000, 0.000, 14:02:20.228
120, -3.91, 39.69, 0.00, 0.00, 0.000, 0.000, 0.000, 14:02:20.229
121, -3.97, 40.39, 0.00, 0.00, 0.000, 0.000, 0.000, 14:02:20.242
122, -8.83, 28.63, 0.00, 0.00, 0.000, 0.000, 0.000, 14:02:20.242
123, -6.44, 32.13, 0.00, 0.00, 0.000, 0.000, 0.000, 14:02:20.258
124, -4.20, 42.23, 0.00, 0.00, 0.000, 0.000, 0.000, 14:02:20.258
125, -6.71, 40.61, 0.00, 0.00, 0.000, 0.000, 0.000, 14:02:20.258
126, -10.11, 29.86, 0.00, 0.00, 0.000, 0.000, 0.000, 14:02:20.258
127, -10.85, 33.46, 0.00, 0.00, 0.000, 0.000, 0.000, 14:02:20.272
128, -6.40, 42.28, 0.00, 0.00, 0.000, 0.000, 0.000, 14:02:20.272
129, -6.90, 43.13, 0.00, 0.00, 0.000, 0.000, 0.000, 14:02:20.288
130, -12.83, 35.72, 0.00, 0.00, 0.000, 0.000, 0.000, 14:02:20.288
131, -9.05, 33.99, 0.00, 0.00, 0.000, 0.000, 0.000, 14:02:20.288
132, -4.58, 41.36, 0.00, 0.00, 0.000, 0.000, 0.000, 14:02:20.288
133, -5.05, 38.10, 0.00, 0.00, 0.000, 0.000, 0.000, 14:02:20.303
134, -9.94, 33.09, 0.00, 0.00, 0.000, 0.000, 0.000, 14:02:20.303
135, -11.36, 37.23, 0.00, 0.00, 0.000, 0.000, 0.000, 14:02:20.317
136, -4.85, 42.77, 0.00, 0.00, 0.000, 0.000, 0.000, 14:02:20.317
137, -5.23, 43.12, 0.00, 0.00, 0.000, 0.000, 0.000, 14:02:20.317
138, -8.38, 38.00, 0.00, 0.00, 0.000, 0.000, 0.000, 14:02:20.318
139, -11.09, 36.94, 0.00, 0.00, 0.000, 0.000, 0.000, 14:02:20.333
140, -2.77, 44.95, 0.00, 0.00, 0.000, 0.000, 0.000, 14:02:20.333
141, -4.69, 43.93, 0.00, 0.00, 0.000, 0.000, 0.000, 14:02:20.348
142, -11.28, 33.52, 0.00, 0.00, 0.000, 0.000, 0.000, 14:02:20.348
143, -11.00, 33.36, 0.00, 0.00, 0.000, 0.000, 0.000, 14:02:20.348
144, -5.77, 42.29, 0.00, 0.00, 0.000, 0.000, 0.000, 14:02:20.348
145, -6.81, 40.60, 0.00, 0.00, 0.000, 0.000, 0.000, 14:02:20.363
146, -8.55, 32.09, 0.00, 0.00, 0.000, 0.000, 0.000, 14:02:20.363
147, -9.22, 32.83, 0.00, 0.00, 0.000, 0.000, 0.000, 14:02:20.378
148, -3.13, 43.54, 0.00, 0.00, 0.000, 0.000, 0.000, 14:02:20.378
149, -3.79, 43.28, 0.00, 0.00, 0.000, 0.000, 0.000, 14:02:20.378
150, -10.63, 33.77, 0.00, 0.00, 0.000, 0.000, 0.000, 14:02:20.378
151, -8.02, 35.47, 0.00, 0.00, 0.000, 0.000, 0.000, 14:02:20.392
152, -4.33, 43.35, 0.00, 0.00, 0.000, 0.000, 0.000, 14:02:20.392
153, -3.86, 41.08, 0.00, 0.00, 0.000, 0.000, 0.000, 14:02:20.407
154, -8.53, 29.59, 0.00, 0.00, 0.000, 0.000, 0.000, 14:02:20.407
155, -10.84, 32.26, 0.00, 0.00, 0.000, 0.000, 0.000, 14:02:20.407
156, -5.25, 41.15, 0.00, 0.00, 0.000, 0.000, 0.000, 14:02:20.407
157, -6.65, 39.79, 0.00, 0.00, 0.000, 0.000, 0.000, 14:02:20.422
158, -10.70, 32.17, 0.00, 0.00, 0.000, 0.000, 0.000, 14:02:20.422
159, -6.91, 33.22, 0.00, 0.00, 0.000, 0.000, 0.000, 14:02:20.439
160, -3.72, 39.10, 0.00, 0.00, 0.000, 0.000, 0.000, 14:02:20.439
161, -1.85, 39.37, 0.00, 0.00, 0.000, 0.000, 0.000, 14:02:20.439
162, -7.52, 32.71, 0.00, 0.00, 0.000, 0.000, 0.000, 14:02:20.439
163, -6.97, 30.22, 0.00, 0.00, 0.000, 0.000, 0.000, 14:02:20.452
164, -7.18, 41.19, 0.00, 0.00, 0.000, 0.000, 0.000, 14:02:20.452
165, -6.19, 40.22, 0.00, 0.00, 0.000, 0.000, 0.000, 14:02:20.468
166, -9.71, 33.76, 0.00, 0.00, 0.000, 0.000, 0.000, 14:02:20.468
167, -10.60, 34.14, 0.00, 0.00, 0.000, 0.000, 0.000, 14:02:20.468
168, -6.31, 41.43, 0.00, 0.00, 0.000, 0.000, 0.000, 14:02:20.468
169, -4.96, 44.22, 0.00, 0.00, 0.000, 0.000, 0.000, 14:02:20.482
170, -9.15, 37.40, 0.00, 0.00, 0.000, 0.000, 0.000, 14:02:20.482
171, -7.32, 39.01, 0.00, 0.00, 0.000, 0.000, 0.000, 14:02:20.497
172, -2.24, 44.43, 0.00, 0.00, 0.000, 0.000, 0.000, 14:02:20.497
173, -1.51, 43.96, 0.00, 0.00, 0.000, 0.000, 0.000, 14:02:20.505
174, -7.20, 37.55, 0.00, 0.00, 0.000, 0.000, 0.000, 14:02:20.505
175, -7.95, 38.75, 0.00, 0.00, 0.000, 0.000, 0.000, 14:02:20.512
176, -5.20, 44.99, 0.00, 0.00, 0.000, 0.000, 0.000, 14:02:20.512
177, -3.52, 42.42, 0.00, 0.00, 0.000, 0.000, 0.000, 14:02:20.527
178, -13.13, 36.97, 0.00, 0.00, 0.000, 0.000, 0.000, 14:02:20.527
179, -9.64, 34.18, 0.00, 0.00, 0.000, 0.000, 0.000, 14:02:20.528
180, -5.08, 42.05, 0.00, 0.00, 0.000, 0.000, 0.000, 14:02:20.528
181, -6.46, 41.50, 0.00, 0.00, 0.000, 0.000, 0.000, 14:02:20.543
182, -11.47, 29.79, 0.00, 0.00, 0.000, 0.000, 0.000, 14:02:20.543
183, -7.95, 33.20, 0.00, 0.00, 0.000, 0.000, 0.000, 14:02:20.557
184, -5.08, 42.18, 0.00, 0.00, 0.000, 0.000, 0.000, 14:02:20.557
185, -6.07, 40.46, 0.00, 0.00, 0.000, 0.000, 0.000, 14:02:20.558
186, -7.80, 33.11, 0.00, 0.00, 0.000, 0.000, 0.000, 14:02:20.558
187, -7.23, 29.86, 0.00, 0.00, 0.000, 0.000, 0.000, 14:02:20.572
188, -3.64, 38.66, 0.00, 0.00, 0.000, 0.000, 0.000, 14:02:20.572
189, -5.34, 39.50, 0.00, 0.00, 0.000, 0.000, 0.000, 14:02:20.588
190, -8.49, 31.72, 0.00, 0.00, 0.000, 0.000, 0.000, 14:02:20.588
191, -9.76, 31.81, 0.00, 0.00, 0.000, 0.000, 0.000, 14:02:20.589
192, -5.02, 41.77, 0.00, 0.00, 0.000, 0.000, 0.000, 14:02:20.589
193, -5.15, 42.78, 0.00, 0.00, 0.000, 0.000, 0.000, 14:02:20.603
194, -10.69, 34.32, 0.00, 0.00, 0.000, 0.000, 0.000, 14:02:20.603
195, -6.97, 36.66, 0.00, 0.00, 0.000, 0.000, 0.000, 14:02:20.618
196, -2.52, 45.98, 0.00, 0.00, 0.000, 0.000, 0.000, 14:02:20.618
197, -3.73, 43.17, 0.00, 0.00, 0.000, 0.000, 0.000, 14:02:20.618
198, -6.07, 37.44, 0.00, 0.00, 0.000, 0.000, 0.000, 14:02:20.618
199, -5.72, 33.94, 0.00, 0.00, 0.000, 0.000, 0.000, 14:02:20.632
200, -5.26, 40.07, 0.00, 0.00, 0.000, 0.000, 0.000, 14:02:20.632
0, -3.52, 42.25, 0.00, 0.00, 0.000, 0.000, 0.000, 14:02:20.632
1, -8.12, 31.34, 0.00, 0.00, 0.000, 0.000, 0.000, 14:02:20.648
2, -6.67, 32.32, 0.00, 0.00, 0.000, 0.000, 0.000, 14:02:20.648
3, -2.80, 43.25, 0.00, 0.00, 0.000, 0.000, 0.000, 14:02:20.662
4, -3.78, 41.93, 0.00, 0.00, 0.000, 0.000, 0.000, 14:02:20.662
5, -8.71, 34.13, 0.00, 0.00, 0.000, 0.000, 0.000, 14:02:20.663
6, -8.45, 30.90, 0.00, 0.00, 0.000, 0.000, 0.000, 14:02:20.663
7, -3.12, 41.41, 0.00, 0.00, 0.000, 0.000, 0.000, 14:02:20.677
8, -2.26, 38.99, 0.00, 0.00, 0.000, 0.000, 0.000, 14:02:20.677
9, -9.62, 26.38, 0.00, 0.00, 0.000, 0.000, 0.000, 14:02:20.692
10, -6.81, 33.40, 0.00, 0.00, 0.000, 0.000, 0.000, 14:02:20.692
11, -3.10, 40.71, 0.00, 0.00, 0.000, 0.000, 0.000, 14:02:20.692
12, -1.07, 38.23, 0.00, 0.00, 0.000, 0.000, 0.000, 14:02:20.692
13, -6.20, 33.69, 0.00, 0.00, 0.000, 0.000, 0.000, 14:02:20.708
14, -7.76, 33.28, 0.00, 0.00, 0.000, 0.000, 0.000, 14:02:20.708
15, -0.72, 41.02, 0.00, 0.00, 0.000, 0.000, 0.000, 14:02:20.722
16, -1.53, 41.81, 0.00, 0.00, 0.000, 0.000, 0.000, 14:02:20.722
17, -7.88, 29.79, 0.00, 0.00, 0.000, 0.000, 0.000, 14:02:20.722
18, -8.79, 33.46, 0.00, 0.00, 0.000, 0.000, 0.000, 14:02:20.722
19, -4.21, 41.75, 0.00, 0.00, 0.000, 0.000, 0.000, 14:02:20.738
20, -3.24, 42.41, 0.00, 0.00, 0.000, 0.000, 0.000, 14:02:20.738
21, -7.16, 35.98, 0.00, 0.00, 0.000, 0.000, 0.000, 14:02:20.752
22, -6.87, 31.67, 0.00, 0.00, 0.000, 0.000, 0.000, 14:02:20.752
23, -1.54, 39.13, 0.00, 0.00, 0.000, 0.000, 0.000, 14:02:20.752
24, -5.22, 46.91, 0.00, 0.00, 0.000, 0.000, 0.000, 14:02:20.752
25, -9.46, 39.16, 0.00, 0.00, 0.000, 0.000, 0.000, 14:02:20.768
26, -7.51, 36.32, 0.00, 0.00, 0.000, 0.000, 0.000, 14:02:20.768
27, -2.53, 44.34, 0.00, 0.00, 0.000, 0.000, 0.000, 14:02:20.783
28, -1.14, 42.43, 0.00, 0.00, 0.000, 0.000, 0.000, 14:02:20.783
29, -8.09, 35.39, 0.00, 0.00, 0.000, 0.000, 0.000, 14:02:20.789
30, -9.68, 33.97, 0.00, 0.00, 0.000, 0.000, 0.000, 14:02:20.790
31, -4.96, 40.06, 0.00, 0.00, 0.000, 0.000, 0.000, 14:02:20.797
32, -4.40, 41.04, 0.00, 0.00, 0.000, 0.000, 0.000, 14:02:20.798
33, -5.17, 33.37, 0.00, 0.00, 0.000, 0.000, 0.000, 14:02:20.812
34, -9.43, 31.76, 0.00, 0.00, 0.000, 0.000, 0.000, 14:02:20.812
35, -5.22, 43.76, 0.00, 0.00, 0.000, 0.000, 0.000, 14:02:20.812
36, -3.12, 40.99, 0.00, 0.00, 0.000, 0.000, 0.000, 14:02:20.813
37, -10.07, 33.07, 0.00, 0.00, 0.000, 0.000, 0.000, 14:02:20.827
38, -11.52, 33.01, 0.00, 0.00, 0.000, 0.000, 0.000, 14:02:20.827
39, -1.90, 42.94, 0.00, 0.00, 0.000, 0.000, 0.000, 14:02:20.842
40, -1.30, 42.35, 0.00, 0.00, 0.000, 0.000, 0.000, 14:02:20.843
41, -6.76, 36.10, 0.00, 0.00, 0.000, 0.000, 0.000, 14:02:20.843
42, -8.74, 36.73, 0.00, 0.00, 0.000, 0.000, 0.000, 14:02:20.843
43, -2.18, 45.08, 0.00, 0.00, 0.000, 0.000, 0.000, 14:02:20.857
44, -4.46, 44.34, 0.00, 0.00, 0.000, 0.000, 0.000, 14:02:20.857
45, -8.01, 35.50, 0.00, 0.00, 0.000, 0.000, 0.000, 14:02:20.872
46, -6.74, 35.29, 0.00, 0.00, 0.000, 0.000, 0.000, 14:02:20.872
47, -1.28, 44.16, 0.00, 0.00, 0.000, 0.000, 0.000, 14:02:20.872
48, -0.51, 44.44, 0.00, 0.00, 0.000, 0.000, 0.000, 14:02:20.872
49, -7.82, 37.01, 0.00, 0.00, 0.000, 0.000, 0.000, 14:02:20.888
50, -11.07, 37.08, 0.00, 0.00, 0.000, 0.000, 0.000, 14:02:20.888
51, -2.34, 43.59, 0.00, 0.00, 0.000, 0.000, 0.000, 14:02:20.902
52, -3.68, 39.15, 0.00, 0.00, 0.000, 0.000, 0.000, 14:02:20.902
53, -5.03, 30.96, 0.00, 0.00, 0.000, 0.000, 0.000, 14:02:20.902
54, -6.55, 33.57, 0.00, 0.00, 0.000, 0.000, 0.000, 14:02:20.902
55, -3.15, 39.97, 0.00, 0.00, 0.000, 0.000, 0.000, 14:02:20.918
56, -0.78, 39.36, 0.00, 0.00, 0.000, 0.000, 0.000, 14:02:20.918
57, -7.54, 30.03, 0.00, 0.00, 0.000, 0.000, 0.000, 14:02:20.933
58, -5.66, 29.68, 0.00, 0.00, 0.000, 0.000, 0.000, 14:02:20.933
59, -3.26, 38.64, 0.00, 0.00, 0.000, 0.000, 0.000, 14:02:20.933
60, -0.58, 37.67, 0.00, 0.00, 0.000, 0.000, 0.000, 14:02:20.933
61, -4.76, 28.94, 0.00, 0.00, 0.000, 0.000, 0.000, 14:02:20.947
62, -3.95, 31.00, 0.00, 0.00, 0.000, 0.000, 0.000, 14:02:20.948
63, 0.08, 42.43, 0.00, 0.00, 0.000, 0.000, 0.000, 14:02:20.962
64, -1.48, 41.16, 0.00, 0.00, 0.000, 0.000, 0.000, 14:02:20.962
65, -5.85, 32.05, 0.00, 0.00, 0.000, 0.000, 0.000, 14:02:20.963
66, -5.29, 31.22, 0.00, 0.00, 0.000, 0.000, 0.000, 14:02:20.963
67, -2.53, 40.21, 0.00, 0.00, 0.000, 0.000, 0.000, 14:02:20.978
68, -4.98, 39.28, 0.00, 0.00, 0.000, 0.000, 0.000, 14:02:20.978
69, -8.07, 32.08, 0.00, 0.00, 0.000, 0.000, 0.000, 14:02:20.992
70, -6.67, 34.23, 0.00, 0.00, 0.000, 0.000, 0.000, 14:02:20.992
71, 0.47, 41.72, 0.00, 0.00, 0.000, 0.000, 0.000, 14:02:20.993
72, -2.54, 43.78, 0.00, 0.00, 0.000, 0.000, 0.000, 14:02:20.993
73, -5.87, 33.26, 0.00, 0.00, 0.000, 0.000, 0.000, 14:02:21.008
74, -8.15, 33.19, 0.00, 0.00, 0.000, 0.000, 0.000, 14:02:21.008
75, -1.29, 42.69, 0.00, 0.00, 0.000, 0.000, 0.000, 14:02:21.022
76, 0.25, 41.61, 0.00, 0.00, 0.000, 0.000, 0.000, 14:02:21.023
77, -7.61, 32.74, 0.00, 0.00, 0.000, 0.000, 0.000, 14:02:21.023
78, -8.63, 34.32, 0.00, 0.00, 0.000, 0.000, 0.000, 14:02:21.023
79, -1.85, 42.38, 0.00, 0.00, 0.000, 0.000, 0.000, 14:02:21.038
80, -3.76, 38.90, 0.00, 0.00, 0.000, 0.000, 0.000, 14:02:21.038
81, -6.67, 32.46, 0.00, 0.00, 0.000, 0.000, 0.000, 14:02:21.052
82, -3.40, 31.15, 0.00, 0.00, 0.000, 0.000, 0.000, 14:02:21.052
83, 1.02, 41.81, 0.00, 0.00, 0.000, 0.000, 0.000, 14:02:21.052
84, -0.30, 41.76, 0.00, 0.00, 0.000, 0.000, 0.000, 14:02:21.052
85, -5.62, 36.27, 0.00, 0.00, 0.000, 0.000, 0.000, 14:02:21.067
86, -8.26, 35.43, 0.00, 0.00, 0.000, 0.000, 0.000, 14:02:21.067
87, -3.81, 43.13, 0.00, 0.00, 0.000, 0.000, 0.000, 14:02:21.082
88, -3.96, 41.36, 0.00, 0.00, 0.000, 0.000, 0.000, 14:02:21.082
89, -8.86, 36.24, 0.00, 0.00, 0.000, 0.000, 0.000, 14:02:21.082
90, -7.85, 36.18, 0.00, 0.00, 0.000, 0.000, 0.000, 14:02:21.083
91, -4.28, 43.40, 0.00, 0.00, 0.000, 0.000, 0.000, 14:02:21.097
92, -3.09, 43.70, 0.00, 0.00, 0.000, 0.000, 0.000, 14:02:21.098
93, -8.20, 34.49, 0.00, 0.00, 0.000, 0.000, 0.000, 14:02:21.112
94, -5.01, 34.85, 0.00, 0.00, 0.000, 0.000, 0.000, 14:02:21.112
95, -2.91, 39.22, 0.00, 0.00, 0.000, 0.000, 0.000, 14:02:21.112
96, -3.69, 39.55, 0.00, 0.00, 0.000, 0.000, 0.000, 14:02:21.112
97, -6.97, 32.89, 0.00, 0.00, 0.000, 0.000, 0.000, 14:02:21.127
98, -7.75, 35.33, 0.00, 0.00, 0.000, 0.000, 0.000, 14:02:21.127
99, -4.05, 43.39, 0.00, 0.00, 0.000, 0.000, 0.000, 14:02:21.143
100, -7.00, 43.52, 0.00, 0.00, 0.000, 0.000, 0.000, 14:02:21.143
101, -5.47, 35.56, 0.00, 0.00, 0.000, 0.000, 0.000, 14:02:21.143
102, -7.37, 33.49, 0.00, 0.00, 0.000, 0.000, 0.000, 14:02:21.143
103, -1.39, 38.99, 0.00, 0.00, 0.000, 0.000, 0.000, 14:02:21.157
104, -2.51, 43.62, 0.00, 0.00, 0.000, 0.000, 0.000, 14:02:21.157
105, -6.31, 30.04, 0.00, 0.00, 0.000, 0.000, 0.000, 14:02:21.172
106, -7.48, 34.56, 0.00, 0.00, 0.000, 0.000, 0.000, 14:02:21.172
107, -2.25, 42.81, 0.00, 0.00, 0.000, 0.000, 0.000, 14:02:21.173
108, -0.25, 43.70, 0.00, 0.00, 0.000, 0.000, 0.000, 14:02:21.173
109, -6.86, 31.74, 0.00, 0.00, 0.000, 0.000, 0.000, 14:02:21.188
110, -9.80, 31.70, 0.00, 0.00, 0.000, 0.000, 0.000, 14:02:21.188
111, -4.53, 40.21, 0.00, 0.00, 0.000, 0.000, 0.000, 14:02:21.203
112, -3.28, 40.09, 0.00, 0.00, 0.000, 0.000, 0.000, 14:02:21.203
113, -7.86, 30.41, 0.00, 0.00, 0.000, 0.000, 0.000, 14:02:21.203
114, -6.57, 31.31, 0.00, 0.00, 0.000, 0.000, 0.000, 14:02:21.203
115, -3.34, 38.90, 0.00, 0.00, 0.000, 0.000, 0.000, 14:02:21.224
116, -1.59, 38.57, 0.00, 0.00, 0.000, 0.000, 0.000, 14:02:21.224
117, -6.98, 26.39, 0.00, 0.00, 0.000, 0.000, 0.000, 14:02:21.232
118, -8.84, 27.45, 0.00, 0.00, 0.000, 0.000, 0.000, 14:02:21.232
119, -5.31, 40.92, 0.00, 0.00, 0.000, 0.000, 0.000, 14:02:21.233
120, -7.85, 40.94, 0.00, 0.00, 0.000, 0.000, 0.000, 14:02:21.233
121, -9.90, 33.17, 0.00, 0.00, 0.000, 0.000, 0.000, 14:02:21.248
122, -8.13, 32.79, 0.00, 0.00, 0.000, 0.000, 0.000, 14:02:21.248
123, -4.97, 41.74, 0.00, 0.00, 0.000, 0.000, 0.000, 14:02:21.262
124, -5.19, 39.51, 0.00, 0.00, 0.000, 0.000, 0.000, 14:02:21.262
125, -9.78, 29.84, 0.00, 0.00, 0.000, 0.000, 0.000, 14:02:21.262
126, -8.51, 34.84, 0.00, 0.00, 0.000, 0.000, 0.000, 14:02:21.262
127, -5.98, 42.24, 0.00, 0.00, 0.000, 0.000, 0.000, 14:02:21.278
128, -7.43, 41.42, 0.00, 0.00, 0.000, 0.000, 0.000, 14:02:21.278
129, -9.39, 33.98, 0.00, 0.00, 0.000, 0.000, 0.000, 14:02:21.292
130, -9.26, 34.99, 0.00, 0.00, 0.000, 0.000, 0.000, 14:02:21.293
131, -3.52, 41.52, 0.00, 0.00, 0.000, 0.000, 0.000, 14:02:21.293
132, -1.74, 42.37, 0.00, 0.00, 0.000, 0.000, 0.000, 14:02:21.293
133, -7.61, 33.15, 0.00, 0.00, 0.000, 0.000, 0.000, 14:02:21.307
134, -8.39, 34.95, 0.00, 0.00, 0.000, 0.000, 0.000, 14:02:21.307
135, -3.44, 42.35, 0.00, 0.00, 0.000, 0.000, 0.000, 14:02:21.322
136, -2.25, 46.46, 0.00, 0.00, 0.000, 0.000, 0.000, 14:02:21.322
137, -6.34, 36.00, 0.00, 0.00, 0.000, 0.000, 0.000, 14:02:21.323
138, -9.29, 33.06, 0.00, 0.00, 0.000, 0.000, 0.000, 14:02:21.323
139, -4.88, 41.41, 0.00, 0.00, 0.000, 0.000, 0.000, 14:02:21.338
140, -3.69, 41.00, 0.00, 0.00, 0.000, 0.000, 0.000, 14:02:21.338
141, -8.71, 40.24, 0.00, 0.00, 0.000, 0.000, 0.000, 14:02:21.352
142, -6.96, 37.68, 0.00, 0.00, 0.000, 0.000, 0.000, 14:02:21.352
143, -6.82, 42.19, 0.00, 0.00, 0.000, 0.000, 0.000, 14:02:21.353
144, -5.25, 41.55, 0.00, 0.00, 0.000, 0.000, 0.000, 14:02:21.353
145, -12.14, 38.32, 0.00, 0.00, 0.000, 0.000, 0.000, 14:02:21.368
146, -10.42, 35.99, 0.00, 0.00, 0.000, 0.000, 0.000, 14:02:21.368
147, -6.65, 43.35, 0.00, 0.00, 0.000, 0.000, 0.000, 14:02:21.383
148, -5.57, 43.84, 0.00, 0.00, 0.000, 0.000, 0.000, 14:02:21.383
149, -10.99, 32.16, 0.00, 0.00, 0.000, 0.000, 0.000, 14:02:21.383
150, -9.49, 33.65, 0.00, 0.00, 0.000, 0.000, 0.000, 14:02:21.383
151, -4.66, 40.70, 0.00, 0.00, 0.000, 0.000, 0.000, 14:02:21.398
152, -5.42, 41.25, 0.00, 0.00, 0.000, 0.000, 0.000, 14:02:21.398
153, -11.26, 32.34, 0.00, 0.00, 0.000, 0.000, 0.000, 14:02:21.412
154, -10.04, 31.61, 0.00, 0.00, 0.000, 0.000, 0.000, 14:02:21.412
155, -3.68, 40.53, 0.00, 0.00, 0.000, 0.000, 0.000, 14:02:21.413
156, -3.58, 43.55, 0.00, 0.00, 0.000, 0.000, 0.000, 14:02:21.413
157, -4.72, 35.85, 0.00, 0.00, 0.000, 0.000, 0.000, 14:02:21.428
158, -6.45, 33.76, 0.00, 0.00, 0.000, 0.000, 0.000, 14:02:21.428
159, -4.47, 41.57, 0.00, 0.00, 0.000, 0.000, 0.000, 14:02:21.443
160, -1.41, 43.16, 0.00, 0.00, 0.000, 0.000, 0.000, 14:02:21.443
161, -5.14, 32.96, 0.00, 0.00, 0.000, 0.000, 0.000, 14:02:21.443
162, -4.96, 35.34, 0.00, 0.00, 0.000, 0.000, 0.000, 14:02:21.443
163, -4.54, 38.61, 0.00, 0.00, 0.000, 0.000, 0.000, 14:02:21.457
164, -1.71, 41.88, 0.00, 0.00, 0.000, 0.000, 0.000, 14:02:21.458
165, -4.70, 33.07, 0.00, 0.00, 0.000, 0.000, 0.000, 14:02:21.472
166, -4.02, 32.84, 0.00, 0.00, 0.000, 0.000, 0.000, 14:02:21.473
167, -2.87, 39.09, 0.00, 0.00, 0.000, 0.000, 0.000, 14:02:21.473
168, -0.52, 41.69, 0.00, 0.00, 0.000, 0.000, 0.000, 14:02:21.473
169, -6.40, 34.81, 0.00, 0.00, 0.000, 0.000, 0.000, 14:02:21.488
170, -7.29, 35.50, 0.00, 0.00, 0.000, 0.000, 0.000, 14:02:21.488
171, -1.18, 42.52, 0.00, 0.00, 0.000, 0.000, 0.000, 14:02:21.504
172, -2.70, 44.95, 0.00, 0.00, 0.000, 0.000, 0.000, 14:02:21.504
173, -7.98, 37.49, 0.00, 0.00, 0.000, 0.000, 0.000, 14:02:21.504
174, -6.61, 33.32, 0.00, 0.00, 0.000, 0.000, 0.000, 14:02:21.504
175, -2.60, 39.63, 0.00, 0.00, 0.000, 0.000, 0.000, 14:02:21.518
176, -3.35, 39.08, 0.00, 0.00, 0.000, 0.000, 0.000, 14:02:21.518
177, -8.82, 30.91, 0.00, 0.00, 0.000, 0.000, 0.000, 14:02:21.534
178, -9.03, 33.67, 0.00, 0.00, 0.000, 0.000, 0.000, 14:02:21.534
179, -1.52, 41.48, 0.00, 0.00, 0.000, 0.000, 0.000, 14:02:21.534
180, -2.95, 44.73, 0.00, 0.00, 0.000, 0.000, 0.000, 14:02:21.534
181, -5.37, 37.36, 0.00, 0.00, 0.000, 0.000, 0.000, 14:02:21.547
182, -7.70, 36.45, 0.00, 0.00, 0.000, 0.000, 0.000, 14:02:21.547
183, -4.30, 44.07, 0.00, 0.00, 0.000, 0.000, 0.000, 14:02:21.562
184, -4.16, 42.66, 0.00, 0.00, 0.000, 0.000, 0.000, 14:02:21.562
185, -9.34, 31.64, 0.00, 0.00, 0.000, 0.000, 0.000, 14:02:21.562
186, -8.91, 33.96, 0.00, 0.00, 0.000, 0.000, 0.000, 14:02:21.562
187, -3.89, 43.48, 0.00, 0.00, 0.000, 0.000, 0.000, 14:02:21.577
188, -3.16, 43.12, 0.00, 0.00, 0.000, 0.000, 0.000, 14:02:21.577
189, -6.53, 34.41, 0.00, 0.00, 0.000, 0.000, 0.000, 14:02:21.592
190, -4.86, 31.31, 0.00, 0.00, 0.000, 0.000, 0.000, 14:02:21.592
191, -2.41, 41.34, 0.00, 0.00, 0.000, 0.000, 0.000, 14:02:21.592
192, -0.55, 42.07, 0.00, 0.00, 0.000, 0.000, 0.000, 14:02:21.592
193, -3.23, 35.03, 0.00, 0.00, 0.000, 0.000, 0.000, 14:02:21.608
194, -5.73, 34.83, 0.00, 0.00, 0.000, 0.000, 0.000, 14:02:21.608
195, 0.09, 43.31, 0.00, 0.00, 0.000, 0.000, 0.000, 14:02:21.622
196, 1.69, 43.35, 0.00, 0.00, 0.000, 0.000, 0.000, 14:02:21.622
197, -3.03, 36.54, 0.00, 0.00, 0.000, 0.000, 0.000, 14:02:21.622
198, -2.17, 35.12, 0.00, 0.00, 0.000, 0.000, 0.000, 14:02:21.622
199, 1.08, 39.79, 0.00, 0.00, 0.000, 0.000, 0.000, 14:02:21.638
200, -4.33, 44.71, 0.00, 0.00, 0.000, 0.000, 0.000, 14:02:21.638
0, -6.09, 34.57, 0.00, 0.00, 0.000, 0.000, 0.000, 14:02:21.645
1, -6.71, 32.26, 0.00, 0.00, 0.000, 0.000, 0.000, 14:02:21.653
2, -3.10, 41.30, 0.00, 0.00, 0.000, 0.000, 0.000, 14:02:21.653
3, -2.13, 41.02, 0.00, 0.00, 0.000, 0.000, 0.000, 14:02:21.667
4, -5.64, 33.31, 0.00, 0.00, 0.000, 0.000, 0.000, 14:02:21.667
5, -4.70, 33.39, 0.00, 0.00, 0.000, 0.000, 0.000, 14:02:21.667
6, -0.66, 41.76, 0.00, 0.00, 0.000, 0.000, 0.000, 14:02:21.668
7, 0.08, 43.05, 0.00, 0.00, 0.000, 0.000, 0.000, 14:02:21.683
8, -3.83, 30.23, 0.00, 0.00, 0.000, 0.000, 0.000, 14:02:21.683
9, -4.63, 30.09, 0.00, 0.00, 0.000, 0.000, 0.000, 14:02:21.698
10, -3.31, 39.31, 0.00, 0.00, 0.000, 0.000, 0.000, 14:02:21.698
11, -1.36, 42.91, 0.00, 0.00, 0.000, 0.000, 0.000, 14:02:21.698
12, -3.98, 33.01, 0.00, 0.00, 0.000, 0.000, 0.000, 14:02:21.699
13, -3.55, 30.81, 0.00, 0.00, 0.000, 0.000, 0.000, 14:02:21.713
14, -1.24, 38.32, 0.00, 0.00, 0.000, 0.000, 0.000, 14:02:21.713
15, 0.82, 40.10, 0.00, 0.00, 0.000, 0.000, 0.000, 14:02:21.727
16, -4.90, 30.70, 0.00, 0.00, 0.000, 0.000, 0.000, 14:02:21.727
17, -7.26, 28.23, 0.00, 0.00, 0.000, 0.000, 0.000, 14:02:21.727
18, -3.62, 37.83, 0.00, 0.00, 0.000, 0.000, 0.000, 14:02:21.727
19, -2.89, 38.53, 0.00, 0.00, 0.000, 0.000, 0.000, 14:02:21.742
20, -8.32, 29.41, 0.00, 0.00, 0.000, 0.000, 0.000, 14:02:21.742
21, -10.65, 25.02, 0.00, 0.00, 0.000, 0.000, 0.000, 14:02:21.757
22, -5.06, 37.85, 0.00, 0.00, 0.000, 0.000, 0.000, 14:02:21.758
23, -3.02, 35.65, 0.00, 0.00, 0.000, 0.000, 0.000, 14:02:21.758
24, -7.08, 28.82, 0.00, 0.00, 0.000, 0.000, 0.000, 14:02:21.758
25, -9.67, 27.13, 0.00, 0.00, 0.000, 0.000, 0.000, 14:02:21.772
26, -2.24, 36.77, 0.00, 0.00, 0.000, 0.000, 0.000, 14:02:21.773
27, -4.45, 34.75, 0.00, 0.00, 0.000, 0.000, 0.000, 14:02:21.787
28, -6.58, 27.63, 0.00, 0.00, 0.000, 0.000, 0.000, 14:02:21.787
29, -7.60, 27.44, 0.00, 0.00, 0.000, 0.000, 0.000, 14:02:21.788
30, -3.60, 37.00, 0.00, 0.00, 0.000, 0.000, 0.000, 14:02:21.788
31, -3.75, 31.10, 0.00, 0.00, 0.000, 0.000, 0.000, 14:02:21.803
32, -7.68, 24.08, 0.00, 0.00, 0.000, 0.000, 0.000, 14:02:21.803
33, -7.63, 27.90, 0.00, 0.00, 0.000, 0.000, 0.000, 14:02:21.818
34, -3.14, 36.55, 0.00, 0.00, 0.000, 0.000, 0.000, 14:02:21.818
35, 0.61, 37.86, 0.00, 0.00, 0.000, 0.000, 0.000, 14:02:21.818
36, -3.16, 28.88, 0.00, 0.00, 0.000, 0.000, 0.000, 14:02:21.818
37, -5.24, 27.78, 0.00, 0.00, 0.000, 0.000, 0.000, 14:02:21.834
38, -3.70, 36.92, 0.00, 0.00, 0.000, 0.000, 0.000, 14:02:21.834
39, -3.48, 39.04, 0.00, 0.00, 0.000, 0.000, 0.000, 14:02:21.848
40, -7.41, 29.28, 0.00, 0.00, 0.000, 0.000, 0.000, 14:02:21.848
41, -5.34, 30.45, 0.00, 0.00, 0.000, 0.000, 0.000, 14:02:21.848
42, -4.57, 40.37, 0.00, 0.00, 0.000, 0.000, 0.000, 14:02:21.848
43, -2.88, 41.16, 0.00, 0.00, 0.000, 0.000, 0.000, 14:02:21.862
44, -7.11, 34.77, 0.00, 0.00, 0.000, 0.000, 0.000, 14:02:21.862
45, -4.59, 31.79, 0.00, 0.00, 0.000, 0.000, 0.000, 14:02:21.877
46, -2.11, 40.50, 0.00, 0.00, 0.000, 0.000, 0.000, 14:02:21.877
47, -2.64, 43.68, 0.00, 0.00, 0.000, 0.000, 0.000, 14:02:21.877
48, -6.54, 36.36, 0.00, 0.00, 0.000, 0.000, 0.000, 14:02:21.877
49, -5.07, 34.12, 0.00, 0.00, 0.000, 0.000, 0.000, 14:02:21.892
50, -1.87, 41.73, 0.00, 0.00, 0.000, 0.000, 0.000, 14:02:21.892
51, -1.92, 41.66, 0.00, 0.00, 0.000, 0.000, 0.000, 14:02:21.907
52, -6.39, 37.03, 0.00, 0.00, 0.000, 0.000, 0.000, 14:02:21.908
53, -7.72, 34.89, 0.00, 0.00, 0.000, 0.000, 0.000, 14:02:21.908
54, -4.49, 41.26, 0.00, 0.00, 0.000, 0.000, 0.000, 14:02:21.908
55, -6.46, 39.33, 0.00, 0.00, 0.000, 0.000, 0.000, 14:02:21.922
56, -8.61, 30.92, 0.00, 0.00, 0.000, 0.000, 0.000, 14:02:21.922
57, -10.58, 30.09, 0.00, 0.00, 0.000, 0.000, 0.000, 14:02:21.938
58, -5.72, 37.87, 0.00, 0.00, 0.000, 0.000, 0.000, 14:02:21.938
59, -5.05, 36.98, 0.00, 0.00, 0.000, 0.000, 0.000, 14:02:21.938
60, -5.54, 28.26, 0.00, 0.00, 0.000, 0.000, 0.000, 14:02:21.938
61, -6.27, 30.98, 0.00, 0.00, 0.000, 0.000, 0.000, 14:02:21.967
62, -4.83, 40.13, 0.00, 0.00, 0.000, 0.000, 0.000, 14:02:21.967
63, -6.02, 40.15, 0.00, 0.00, 0.000, 0.000, 0.000, 14:02:21.968
64, -8.14, 30.64, 0.00, 0.00, 0.000, 0.000, 0.000, 14:02:21.968
65, -8.14, 29.53, 0.00, 0.00, 0.000, 0.000, 0.000, 14:02:21.968
66, -2.05, 38.48, 0.00, 0.00, 0.000, 0.000, 0.000, 14:02:21.968
67, -2.01, 40.76, 0.00, 0.00, 0.000, 0.000, 0.000, 14:02:21.983
68, -7.77, 30.99, 0.00, 0.00, 0.000, 0.000, 0.000, 14:02:21.983
69, -9.00, 32.47, 0.00, 0.00, 0.000, 0.000, 0.000, 14:02:21.999
70, -3.79, 40.65, 0.00, 0.00, 0.000, 0.000, 0.000, 14:02:21.999
71, -0.79, 38.90, 0.00, 0.00, 0.000, 0.000, 0.000, 14:02:21.999
72, -3.75, 37.03, 0.00, 0.00, 0.000, 0.000, 0.000, 14:02:21.999
73, -9.93, 32.70, 0.00, 0.00, 0.000, 0.000, 0.000, 14:02:22.013
74, -3.86, 41.52, 0.00, 0.00, 0.000, 0.000, 0.000, 14:02:22.013
75, -2.21, 45.08, 0.00, 0.00, 0.000, 0.000, 0.000, 14:02:22.027
76, -6.32, 36.86, 0.00, 0.00, 0.000, 0.000, 0.000, 14:02:22.027
77, -6.78, 31.78, 0.00, 0.00, 0.000, 0.000, 0.000, 14:02:22.027
78, -2.60, 40.95, 0.00, 0.00, 0.000, 0.000, 0.000, 14:02:22.028
79, -2.41, 41.75, 0.00, 0.00, 0.000, 0.000, 0.000, 14:02:22.042
80, -5.43, 34.18, 0.00, 0.00, 0.000, 0.000, 0.000, 14:02:22.043
81, -6.69, 31.23, 0.00, 0.00, 0.000, 0.000, 0.000, 14:02:22.057
82, -1.86, 37.60, 0.00, 0.00, 0.000, 0.000, 0.000, 14:02:22.057
83, -4.59, 36.73, 0.00, 0.00, 0.000, 0.000, 0.000, 14:02:22.058
84, -4.91, 29.16, 0.00, 0.00, 0.000, 0.000, 0.000, 14:02:22.058
85, -7.02, 30.52, 0.00, 0.00, 0.000, 0.000, 0.000, 14:02:22.075
86, -1.57, 40.49, 0.00, 0.00, 0.000, 0.000, 0.000, 14:02:22.076
87, -3.03, 43.06, 0.00, 0.00, 0.000, 0.000, 0.000, 14:02:22.088
88, -7.58, 32.51, 0.00, 0.00, 0.000, 0.000, 0.000, 14:02:22.088
89, -7.37, 34.82, 0.00, 0.00, 0.000, 0.000, 0.000, 14:02:22.088
90, -1.79, 42.02, 0.00, 0.00, 0.000, 0.000, 0.000, 14:02:22.088
91, -2.53, 41.75, 0.00, 0.00, 0.000, 0.000, 0.000, 14:02:22.103
92, -9.92, 34.84, 0.00, 0.00, 0.000, 0.000, 0.000, 14:02:22.103
93, -6.65, 33.74, 0.00, 0.00, 0.000, 0.000, 0.000, 14:02:22.117
94, -3.48, 40.28, 0.00, 0.00, 0.000, 0.000, 0.000, 14:02:22.117
95, -3.79, 40.86, 0.00, 0.00, 0.000, 0.000, 0.000, 14:02:22.117
96, -2.95, 32.48, 0.00, 0.00, 0.000, 0.000, 0.000, 14:02:22.117
97, -7.37, 31.73, 0.00, 0.00, 0.000, 0.000, 0.000, 14:02:22.138
98, -1.24, 39.33, 0.00, 0.00, 0.000, 0.000, 0.000, 14:02:22.139
99, -0.83, 42.00, 0.00, 0.00, 0.000, 0.000, 0.000, 14:02:22.147
100, -4.05, 35.43, 0.00, 0.00, 0.000, 0.000, 0.000, 14:02:22.147
101, -3.18, 33.51, 0.00, 0.00, 0.000, 0.000, 0.000, 14:02:22.147
102, -4.19, 43.52, 0.00, 0.00, 0.000, 0.000, 0.000, 14:02:22.148
103, -0.10, 47.60, 0.00, 0.00, 0.000, 0.000, 0.000, 14:02:22.162
104, -5.49, 39.68, 0.00, 0.00, 0.000, 0.000, 0.000, 14:02:22.162
105, -7.01, 34.50, 0.00, 0.00, 0.000, 0.000, 0.000, 14:02:22.178
106, -1.96, 42.03, 0.00, 0.00, 0.000, 0.000, 0.000, 14:02:22.178
107, -3.29, 42.95, 0.00, 0.00, 0.000, 0.000, 0.000, 14:02:22.178
108, -5.71, 37.97, 0.00, 0.00, 0.000, 0.000, 0.000, 14:02:22.178
109, -8.40, 33.67, 0.00, 0.00, 0.000, 0.000, 0.000, 14:02:22.193
110, -5.36, 43.68, 0.00, 0.00, 0.000, 0.000, 0.000, 14:02:22.193
111, -3.33, 44.10, 0.00, 0.00, 0.000, 0.000, 0.000, 14:02:22.207
112, -6.77, 37.65, 0.00, 0.00, 0.000, 0.000, 0.000, 14:02:22.207
113, -9.78, 35.61, 0.00, 0.00, 0.000, 0.000, 0.000, 14:02:22.207
114, -5.19, 40.45, 0.00, 0.00, 0.000, 0.000, 0.000, 14:02:22.207
115, -2.78, 41.13, 0.00, 0.00, 0.000, 0.000, 0.000, 14:02:22.222
116, -7.20, 34.94, 0.00, 0.00, 0.000, 0.000, 0.000, 14:02:22.222
117, -5.40, 35.23, 0.00, 0.00, 0.000, 0.000, 0.000, 14:02:22.236
118, -5.67, 40.60, 0.00, 0.00, 0.000, 0.000, 0.000, 14:02:22.236
119, -2.94, 42.70, 0.00, 0.00, 0.000, 0.000, 0.000, 14:02:22.237
120, -6.19, 38.80, 0.00, 0.00, 0.000, 0.000, 0.000, 14:02:22.237
121, -6.91, 35.14, 0.00, 0.00, 0.000, 0.000, 0.000, 14:02:22.252
122, 0.76, 38.09, 0.00, 0.00, 0.000, 0.000, 0.000, 14:02:22.252
123, 0.83, 44.34, 0.00, 0.00, 0.000, 0.000, 0.000, 14:02:22.267
124, -7.45, 34.65, 0.00, 0.00, 0.000, 0.000, 0.000, 14:02:22.267
125, -9.09, 34.80, 0.00, 0.00, 0.000, 0.000, 0.000, 14:02:22.267
126, -5.16, 43.24, 0.00, 0.00, 0.000, 0.000, 0.000, 14:02:22.267
127, -3.14, 42.79, 0.00, 0.00, 0.000, 0.000, 0.000, 14:02:22.283
128, -6.53, 35.65, 0.00, 0.00, 0.000, 0.000, 0.000, 14:02:22.283
129, -6.21, 34.46, 0.00, 0.00, 0.000, 0.000, 0.000, 14:02:22.298
130, 0.42, 41.45, 0.00, 0.00, 0.000, 0.000, 0.000, 14:02:22.298
131, -0.82, 41.42, 0.00, 0.00, 0.000, 0.000, 0.000, 14:02:22.298
132, -5.20, 33.72, 0.00, 0.00, 0.000, 0.000, 0.000, 14:02:22.298
133, -6.93, 31.40, 0.00, 0.00, 0.000, 0.000, 0.000, 14:02:22.313
134, 0.18, 40.59, 0.00, 0.00, 0.000, 0.000, 0.000, 14:02:22.313
135, 1.16, 44.56, 0.00, 0.00, 0.000, 0.000, 0.000, 14:02:22.327
136, -3.15, 32.34, 0.00, 0.00, 0.000, 0.000, 0.000, 14:02:22.327
137, -4.97, 33.13, 0.00, 0.00, 0.000, 0.000, 0.000, 14:02:22.327
138, -3.15, 40.98, 0.00, 0.00, 0.000, 0.000, 0.000, 14:02:22.327
139, -2.75, 42.60, 0.00, 0.00, 0.000, 0.000, 0.000, 14:02:22.343
140, -0.80, 31.33, 0.00, 0.00, 0.000, 0.000, 0.000, 14:02:22.343
141, -3.44, 30.75, 0.00, 0.00, 0.000, 0.000, 0.000, 14:02:22.357
142, -0.04, 40.41, 0.00, 0.00, 0.000, 0.000, 0.000, 14:02:22.357
143, -2.96, 35.95, 0.00, 0.00, 0.000, 0.000, 0.000, 14:02:22.357
144, -4.27, 31.62, 0.00, 0.00, 0.000, 0.000, 0.000, 14:02:22.358
145, -5.13, 31.74, 0.00, 0.00, 0.000, 0.000, 0.000, 14:02:22.372
146, 0.92, 41.86, 0.00, 0.00, 0.000, 0.000, 0.000, 14:02:22.372
147, -0.49, 38.61, 0.00, 0.00, 0.000, 0.000, 0.000, 14:02:22.387
148, -6.81, 35.45, 0.00, 0.00, 0.000, 0.000, 0.000, 14:02:22.388
149, -4.89, 33.00, 0.00, 0.00, 0.000, 0.000, 0.000, 14:02:22.388
150, 0.01, 40.75, 0.00, 0.00, 0.000, 0.000, 0.000, 14:02:22.388
151, -1.53, 45.16, 0.00, 0.00, 0.000, 0.000, 0.000, 14:02:22.403
152, 0.37, 34.72, 0.00, 0.00, 0.000, 0.000, 0.000, 14:02:22.403
153, -3.66, 31.91, 0.00, 0.00, 0.000, 0.000, 0.000, 14:02:22.417
154, 0.52, 44.33, 0.00, 0.00, 0.000, 0.000, 0.000, 14:02:22.417
155, -1.04, 41.39, 0.00, 0.00, 0.000, 0.000, 0.000, 14:02:22.418
156, -4.44, 33.02, 0.00, 0.00, 0.000, 0.000, 0.000, 14:02:22.418
157, -4.06, 33.87, 0.00, 0.00, 0.000, 0.000, 0.000, 14:02:22.433
158, -1.17, 39.05, 0.00, 0.00, 0.000, 0.000, 0.000, 14:02:22.433
159, 0.62, 44.11, 0.00, 0.00, 0.000, 0.000, 0.000, 14:02:22.448
160, -3.17, 33.25, 0.00, 0.00, 0.000, 0.000, 0.000, 14:02:22.448
161, -5.34, 32.74, 0.00, 0.00, 0.000, 0.000, 0.000, 14:02:22.448
162, 0.53, 38.32, 0.00, 0.00, 0.000, 0.000, 0.000, 14:02:22.448
163, 1.44, 41.58, 0.00, 0.00, 0.000, 0.000, 0.000, 14:02:22.463
164, -8.64, 34.61, 0.00, 0.00, 0.000, 0.000, 0.000, 14:02:22.463
165, -5.33, 30.02, 0.00, 0.00, 0.000, 0.000, 0.000, 14:02:22.477
166, -2.04, 37.93, 0.00, 0.00, 0.000, 0.000, 0.000, 14:02:22.477
167, 1.43, 40.03, 0.00, 0.00, 0.000, 0.000, 0.000, 14:02:22.477
168, -2.78, 31.83, 0.00, 0.00, 0.000, 0.000, 0.000, 14:02:22.477
169, -5.75, 30.68, 0.00, 0.00, 0.000, 0.000, 0.000, 14:02:22.492
170, -3.01, 40.96, 0.00, 0.00, 0.000, 0.000, 0.000, 14:02:22.492
171, -1.44, 39.07, 0.00, 0.00, 0.000, 0.000, 0.000, 14:02:22.507
172, -6.32, 30.97, 0.00, 0.00, 0.000, 0.000, 0.000, 14:02:22.507
173, -7.38, 29.52, 0.00, 0.00, 0.000, 0.000, 0.000, 14:02:22.507
174, -5.05, 37.59, 0.00, 0.00, 0.000, 0.000, 0.000, 14:02:22.507
175, -1.21, 41.27, 0.00, 0.00, 0.000, 0.000, 0.000, 14:02:22.522
176, -4.23, 32.24, 0.00, 0.00, 0.000, 0.000, 0.000, 14:02:22.522
177, -4.81, 31.04, 0.00, 0.00, 0.000, 0.000, 0.000, 14:02:22.540
178, -2.49, 41.72, 0.00, 0.00, 0.000, 0.000, 0.000, 14:02:22.540
179, 1.97, 40.18, 0.00, 0.00, 0.000, 0.000, 0.000, 14:02:22.542
180, -3.90, 36.00, 0.00, 0.00, 0.000, 0.000, 0.000, 14:02:22.542
181, -3.46, 35.27, 0.00, 0.00, 0.000, 0.000, 0.000, 14:02:22.554
182, 0.70, 40.94, 0.00, 0.00, 0.000, 0.000, 0.000, 14:02:22.554
183, -0.43, 41.23, 0.00, 0.00, 0.000, 0.000, 0.000, 14:02:22.567
184, -6.28, 31.98, 0.00, 0.00, 0.000, 0.000, 0.000, 14:02:22.567
185, -9.17, 31.66, 0.00, 0.00, 0.000, 0.000, 0.000, 14:02:22.567
186, 1.03, 36.61, 0.00, 0.00, 0.000, 0.000, 0.000, 14:02:22.567
187, -2.20, 38.83, 0.00, 0.00, 0.000, 0.000, 0.000, 14:02:22.583
188, -4.19, 31.32, 0.00, 0.00, 0.000, 0.000, 0.000, 14:02:22.583
189, -4.51, 30.43, 0.00, 0.00, 0.000, 0.000, 0.000, 14:02:22.597
190, 2.13, 39.74, 0.00, 0.00, 0.000, 0.000, 0.000, 14:02:22.597
191, -1.23, 43.22, 0.00, 0.00, 0.000, 0.000, 0.000, 14:02:22.598
192, -3.61, 37.49, 0.00, 0.00, 0.000, 0.000, 0.000, 14:02:22.598
193, -4.43, 33.08, 0.00, 0.00, 0.000, 0.000, 0.000, 14:02:22.613
194, -0.38, 39.16, 0.00, 0.00, 0.000, 0.000, 0.000, 14:02:22.613
195, 2.53, 41.55, 0.00, 0.00, 0.000, 0.000, 0.000, 14:02:22.626
196, -1.68, 38.07, 0.00, 0.00, 0.000, 0.000, 0.000, 14:02:22.627
197, -4.73, 34.46, 0.00, 0.00, 0.000, 0.000, 0.000, 14:02:22.635
198, -6.81, 41.64, 0.00, 0.00, 0.000, 0.000, 0.000, 14:02:22.635
199, -3.02, 39.82, 0.00, 0.00, 0.000, 0.000, 0.000, 14:02:22.643
200, -7.79, 34.85, 0.00, 0.00, 0.000, 0.000, 0.000, 14:02:22.643
0, -7.73, 32.41, 0.00, 0.00, 0.000, 0.000, 0.000, 14:02:22.643
1, -4.64, 40.17, 0.00, 0.00, 0.000, 0.000, 0.000, 14:02:22.658
2, -0.62, 42.76, 0.00, 0.00, 0.000, 0.000, 0.000, 14:02:22.658
3, -5.46, 34.94, 0.00, 0.00, 0.000, 0.000, 0.000, 14:02:22.672
4, -5.81, 31.88, 0.00, 0.00, 0.000, 0.000, 0.000, 14:02:22.672
5, -1.95, 38.50, 0.00, 0.00, 0.000, 0.000, 0.000, 14:02:22.673
6, -1.93, 39.92, 0.00, 0.00, 0.000, 0.000, 0.000, 14:02:22.673
7, -5.95, 33.85, 0.00, 0.00, 0.000, 0.000, 0.000, 14:02:22.688
8, -9.95, 34.51, 0.00, 0.00, 0.000, 0.000, 0.000, 14:02:22.688
9, -3.85, 41.53, 0.00, 0.00, 0.000, 0.000, 0.000, 14:02:22.702
10, -2.87, 40.57, 0.00, 0.00, 0.000, 0.000, 0.000, 14:02:22.702
11, -5.49, 34.97, 0.00, 0.00, 0.000, 0.000, 0.000, 14:02:22.702
12, -7.17, 34.81, 0.00, 0.00, 0.000, 0.000, 0.000, 14:02:22.702
13, -3.11, 42.95, 0.00, 0.00, 0.000, 0.000, 0.000, 14:02:22.717
14, -3.13, 43.76, 0.00, 0.00, 0.000, 0.000, 0.000, 14:02:22.717
15, -4.70, 36.44, 0.00, 0.00, 0.000, 0.000, 0.000, 14:02:22.733
16, -6.61, 34.99, 0.00, 0.00, 0.000, 0.000, 0.000, 14:02:22.733
17, -1.85, 40.18, 0.00, 0.00, 0.000, 0.000, 0.000, 14:02:22.733
18, -3.21, 41.79, 0.00, 0.00, 0.000, 0.000, 0.000, 14:02:22.733
19, -3.24, 32.77, 0.00, 0.00, 0.000, 0.000, 0.000, 14:02:22.748
20, -3.98, 35.61, 0.00, 0.00, 0.000, 0.000, 0.000, 14:02:22.748
21, -0.24, 42.28, 0.00, 0.00, 0.000, 0.000, 0.000, 14:02:22.762
22, -0.22, 40.98, 0.00, 0.00, 0.000, 0.000, 0.000, 14:02:22.762
23, -4.53, 31.27, 0.00, 0.00, 0.000, 0.000, 0.000, 14:02:22.762
24, -7.44, 33.08, 0.00, 0.00, 0.000, 0.000, 0.000, 14:02:22.762
25, -0.17, 38.44, 0.00, 0.00, 0.000, 0.000, 0.000, 14:02:22.778
26, 1.42, 40.51, 0.00, 0.00, 0.000, 0.000, 0.000, 14:02:22.778
27, -6.31, 33.89, 0.00, 0.00, 0.000, 0.000, 0.000, 14:02:22.792
28, -7.04, 33.87, 0.00, 0.00, 0.000, 0.000, 0.000, 14:02:22.792
29, -3.14, 38.55, 0.00, 0.00, 0.000, 0.000, 0.000, 14:02:22.792
30, -2.65, 44.01, 0.00, 0.00, 0.000, 0.000, 0.000, 14:02:22.792
31, -7.59, 35.46, 0.00, 0.00, 0.000, 0.000, 0.000, 14:02:22.807
32, -9.81, 30.41, 0.00, 0.00, 0.000, 0.000, 0.000, 14:02:22.807
33, -4.80, 37.89, 0.00, 0.00, 0.000, 0.000, 0.000, 14:02:22.822
34, -5.56, 39.79, 0.00, 0.00, 0.000, 0.000, 0.000, 14:02:22.822
35, -9.56, 28.71, 0.00, 0.00, 0.000, 0.000, 0.000, 14:02:22.823
36, -6.88, 27.64, 0.00, 0.00, 0.000, 0.000, 0.000, 14:02:22.823
37, -4.30, 37.06, 0.00, 0.00, 0.000, 0.000, 0.000, 14:02:22.838
38, -4.84, 36.40, 0.00, 0.00, 0.000, 0.000, 0.000, 14:02:22.838
39, -7.88, 29.47, 0.00, 0.00, 0.000, 0.000, 0.000, 14:02:22.852
40, -6.15, 28.89, 0.00, 0.00, 0.000, 0.000, 0.000, 14:02:22.852
41, -6.96, 36.35, 0.00, 0.00, 0.000, 0.000, 0.000, 14:02:22.853
42, -4.48, 40.74, 0.00, 0.00, 0.000, 0.000, 0.000, 14:02:22.853
43, -8.62, 28.78, 0.00, 0.00, 0.000, 0.000, 0.000, 14:02:22.868
44, -9.24, 29.15, 0.00, 0.00, 0.000, 0.000, 0.000, 14:02:22.868
45, -1.57, 39.70, 0.00, 0.00, 0.000, 0.000, 0.000, 14:02:22.883
46, -2.57, 41.58, 0.00, 0.00, 0.000, 0.000, 0.000, 14:02:22.883
47, -7.14, 33.60, 0.00, 0.00, 0.000, 0.000, 0.000, 14:02:22.883
48, -10.28, 30.24, 0.00, 0.00, 0.000, 0.000, 0.000, 14:02:22.883
49, -3.15, 40.01, 0.00, 0.00, 0.000, 0.000, 0.000, 14:02:22.898
50, -2.63, 39.65, 0.00, 0.00, 0.000, 0.000, 0.000, 14:02:22.898
51, -4.23, 33.44, 0.00, 0.00, 0.000, 0.000, 0.000, 14:02:22.912
52, -8.56, 30.28, 0.00, 0.00, 0.000, 0.000, 0.000, 14:02:22.913
53, -3.70, 42.98, 0.00, 0.00, 0.000, 0.000, 0.000, 14:02:22.913
54, -6.18, 41.59, 0.00, 0.00, 0.000, 0.000, 0.000, 14:02:22.913
55, -10.19, 32.70, 0.00, 0.00, 0.000, 0.000, 0.000, 14:02:22.928
56, -8.07, 27.77, 0.00, 0.00, 0.000, 0.000, 0.000, 14:02:22.928
57, -4.25, 38.98, 0.00, 0.00, 0.000, 0.000, 0.000, 14:02:22.943
58, -3.84, 40.43, 0.00, 0.00, 0.000, 0.000, 0.000, 14:02:22.943
59, -5.45, 35.84, 0.00, 0.00, 0.000, 0.000, 0.000, 14:02:22.943
60, -8.20, 33.59, 0.00, 0.00, 0.000, 0.000, 0.000, 14:02:22.943
61, -3.46, 43.90, 0.00, 0.00, 0.000, 0.000, 0.000, 14:02:22.957
62, -3.42, 45.50, 0.00, 0.00, 0.000, 0.000, 0.000, 14:02:22.957
63, -6.31, 38.84, 0.00, 0.00, 0.000, 0.000, 0.000, 14:02:22.972
64, -4.94, 39.94, 0.00, 0.00, 0.000, 0.000, 0.000, 14:02:22.972
65, -3.30, 44.72, 0.00, 0.00, 0.000, 0.000, 0.000, 14:02:22.973
66, -4.14, 46.96, 0.00, 0.00, 0.000, 0.000, 0.000, 14:02:22.973
67, -5.78, 37.72, 0.00, 0.00, 0.000, 0.000, 0.000, 14:02:22.987
68, -7.91, 38.47, 0.00, 0.00, 0.000, 0.000, 0.000, 14:02:22.987
69, -2.01, 47.47, 0.00, 0.00, 0.000, 0.000, 0.000, 14:02:23.002
70, 0.76, 47.60, 0.00, 0.00, 0.000, 0.000, 0.000, 14:02:23.002
71, -8.59, 40.67, 0.00, 0.00, 0.000, 0.000, 0.000, 14:02:23.002
72, -8.59, 33.86, 0.00, 0.00, 0.000, 0.000, 0.000, 14:02:23.002
73, -5.94, 40.87, 0.00, 0.00, 0.000, 0.000, 0.000, 14:02:23.018
74, -5.16, 42.37, 0.00, 0.00, 0.000, 0.000, 0.000, 14:02:23.018
75, -3.15, 33.63, 0.00, 0.00, 0.000, 0.000, 0.000, 14:02:23.033
76, -6.72, 35.51, 0.00, 0.00, 0.000, 0.000, 0.000, 14:02:23.033
77, -2.83, 42.66, 0.00, 0.00, 0.000, 0.000, 0.000, 14:02:23.033
78, -2.88, 44.51, 0.00, 0.00, 0.000, 0.000, 0.000, 14:02:23.033
79, -6.30, 38.73, 0.00, 0.00, 0.000, 0.000, 0.000, 14:02:23.047
80, -7.93, 32.17, 0.00, 0.00, 0.000, 0.000, 0.000, 14:02:23.047
81, -3.02, 42.10, 0.00, 0.00, 0.000, 0.000, 0.000, 14:02:23.062
82, -2.76, 39.85, 0.00, 0.00, 0.000, 0.000, 0.000, 14:02:23.062
83, -3.21, 33.28, 0.00, 0.00, 0.000, 0.000, 0.000, 14:02:23.063
84, -6.59, 31.26, 0.00, 0.00, 0.000, 0.000, 0.000, 14:02:23.063
85, -1.81, 38.08, 0.00, 0.00, 0.000, 0.000, 0.000, 14:02:23.077
86, 0.81, 39.41, 0.00, 0.00, 0.000, 0.000, 0.000, 14:02:23.077
87, -4.17, 32.95, 0.00, 0.00, 0.000, 0.000, 0.000, 14:02:23.092
88, -5.20, 33.82, 0.00, 0.00, 0.000, 0.000, 0.000, 14:02:23.092
89, -0.20, 41.51, 0.00, 0.00, 0.000, 0.000, 0.000, 14:02:23.092
90, 0.85, 44.47, 0.00, 0.00, 0.000, 0.000, 0.000, 14:02:23.092
91, -3.62, 37.12, 0.00, 0.00, 0.000, 0.000, 0.000, 14:02:23.107
92, -4.32, 32.17, 0.00, 0.00, 0.000, 0.000, 0.000, 14:02:23.107
93, -3.64, 39.78, 0.00, 0.00, 0.000, 0.000, 0.000, 14:02:23.122
94, -1.10, 42.28, 0.00, 0.00, 0.000, 0.000, 0.000, 14:02:23.122
95, -5.02, 30.20, 0.00, 0.00, 0.000, 0.000, 0.000, 14:02:23.122
96, -4.46, 29.72, 0.00, 0.00, 0.000, 0.000, 0.000, 14:02:23.123
97, -0.31, 40.45, 0.00, 0.00, 0.000, 0.000, 0.000, 14:02:23.138
98, 1.18, 42.17, 0.00, 0.00, 0.000, 0.000, 0.000, 14:02:23.138
99, -5.51, 33.20, 0.00, 0.00, 0.000, 0.000, 0.000, 14:02:23.153
100, -7.43, 34.43, 0.00, 0.00, 0.000, 0.000, 0.000, 14:02:23.153
101, -1.19, 41.92, 0.00, 0.00, 0.000, 0.000, 0.000, 14:02:23.153
102, -3.66, 45.28, 0.00, 0.00, 0.000, 0.000, 0.000, 14:02:23.153
103, -4.00, 32.74, 0.00, 0.00, 0.000, 0.000, 0.000, 14:02:23.168
104, -4.38, 34.01, 0.00, 0.00, 0.000, 0.000, 0.000, 14:02:23.168
105, 0.44, 43.13, 0.00, 0.00, 0.000, 0.000, 0.000, 14:02:23.183
106, 0.70, 40.93, 0.00, 0.00, 0.000, 0.000, 0.000, 14:02:23.183
107, -5.28, 32.15, 0.00, 0.00, 0.000, 0.000, 0.000, 14:02:23.183
108, -6.59, 30.43, 0.00, 0.00, 0.000, 0.000, 0.000, 14:02:23.183
109, -0.90, 39.01, 0.00, 0.00, 0.000, 0.000, 0.000, 14:02:23.198
110, 1.84, 40.80, 0.00, 0.00, 0.000, 0.000, 0.000, 14:02:23.198
111, -3.45, 32.13, 0.00, 0.00, 0.000, 0.000, 0.000, 14:02:23.212
112, -4.36, 31.65, 0.00, 0.00, 0.000, 0.000, 0.000, 14:02:23.212
113, 0.36, 37.74, 0.00, 0.00, 0.000, 0.000, 0.000, 14:02:23.212
114, 3.43, 44.15, 0.00, 0.00, 0.000, 0.000, 0.000, 14:02:23.212
115, -2.41, 33.73, 0.00, 0.00, 0.000, 0.000, 0.000, 14:02:23.227
116, -4.15, 26.47, 0.00, 0.00, 0.000, 0.000, 0.000, 14:02:23.227
117, 1.94, 38.33, 0.00, 0.00, 0.000, 0.000, 0.000, 14:02:23.242
118, 4.41, 41.73, 0.00, 0.00, 0.000, 0.000, 0.000, 14:02:23.242
119, -3.66, 34.35, 0.00, 0.00, 0.000, 0.000, 0.000, 14:02:23.242
120, -6.01, 27.43, 0.00, 0.00, 0.000, 0.000, 0.000, 14:02:23.242
121, 2.53, 37.84, 0.00, 0.00, 0.000, 0.000, 0.000, 14:02:23.257
122, 4.15, 40.84, 0.00, 0.00, 0.000, 0.000, 0.000, 14:02:23.257
123, -5.22, 31.55, 0.00, 0.00, 0.000, 0.000, 0.000, 14:02:23.272
124, -5.68, 30.13, 0.00, 0.00, 0.000, 0.000, 0.000, 14:02:23.273
125, -1.63, 40.35, 0.00, 0.00, 0.000, 0.000, 0.000, 14:02:23.273
126, -1.24, 40.00, 0.00, 0.00, 0.000, 0.000, 0.000, 14:02:23.273
127, -5.56, 31.88, 0.00, 0.00, 0.000, 0.000, 0.000, 14:02:23.288
128, -2.77, 31.21, 0.00, 0.00, 0.000, 0.000, 0.000, 14:02:23.288
129, -1.53, 43.01, 0.00, 0.00, 0.000, 0.000, 0.000, 14:02:23.302
130, -0.67, 41.63, 0.00, 0.00, 0.000, 0.000, 0.000, 14:02:23.303
131, -4.29, 35.79, 0.00, 0.00, 0.000, 0.000, 0.000, 14:02:23.303
132, -5.99, 32.42, 0.00, 0.00, 0.000, 0.000, 0.000, 14:02:23.303
133, 2.94, 39.11, 0.00, 0.00, 0.000, 0.000, 0.000, 14:02:23.317
134, 1.90, 37.97, 0.00, 0.00, 0.000, 0.000, 0.000, 14:02:23.318
135, -5.78, 31.28, 0.00, 0.00, 0.000, 0.000, 0.000, 14:02:23.332
136, -8.25, 30.23, 0.00, 0.00, 0.000, 0.000, 0.000, 14:02:23.332
137, 0.23, 39.97, 0.00, 0.00, 0.000, 0.000, 0.000, 14:02:23.332
138, 3.09, 43.46, 0.00, 0.00, 0.000, 0.000, 0.000, 14:02:23.332
139, -4.70, 34.08, 0.00, 0.00, 0.000, 0.000, 0.000, 14:02:23.348
140, -5.89, 30.57, 0.00, 0.00, 0.000, 0.000, 0.000, 14:02:23.348
141, -3.05, 39.80, 0.00, 0.00, 0.000, 0.000, 0.000, 14:02:23.362
142, -2.39, 41.45, 0.00, 0.00, 0.000, 0.000, 0.000, 14:02:23.362
143, -2.74, 32.34, 0.00, 0.00, 0.000, 0.000, 0.000, 14:02:23.363
144, -4.67, 31.65, 0.00, 0.00, 0.000, 0.000, 0.000, 14:02:23.363
145, -3.47, 41.47, 0.00, 0.00, 0.000, 0.000, 0.000, 14:02:23.378
146, -0.13, 41.40, 0.00, 0.00, 0.000, 0.000, 0.000, 14:02:23.378
147, -3.96, 36.88, 0.00, 0.00, 0.000, 0.000, 0.000, 14:02:23.392
148, -6.74, 35.07, 0.00, 0.00, 0.000, 0.000, 0.000, 14:02:23.392
149, -0.65, 43.35, 0.00, 0.00, 0.000, 0.000, 0.000, 14:02:23.392
150, -1.25, 46.25, 0.00, 0.00, 0.000, 0.000, 0.000, 14:02:23.392
151, -7.22, 40.79, 0.00, 0.00, 0.000, 0.000, 0.000, 14:02:23.407
152, -8.11, 36.07, 0.00, 0.00, 0.000, 0.000, 0.000, 14:02:23.407
153, -5.41, 40.96, 0.00, 0.00, 0.000, 0.000, 0.000, 14:02:23.422
154, -3.61, 45.70, 0.00, 0.00, 0.000, 0.000, 0.000, 14:02:23.422
155, -10.07, 37.04, 0.00, 0.00, 0.000, 0.000, 0.000, 14:02:23.423
156, -5.53, 31.56, 0.00, 0.00, 0.000, 0.000, 0.000, 14:02:23.423
157, -3.61, 42.60, 0.00, 0.00, 0.000, 0.000, 0.000, 14:02:23.437
158, -1.53, 42.74, 0.00, 0.00, 0.000, 0.000, 0.000, 14:02:23.437
159, -2.67, 37.42, 0.00, 0.00, 0.000, 0.000, 0.000, 14:02:23.453
160, -6.50, 37.66, 0.00, 0.00, 0.000, 0.000, 0.000, 14:02:23.453
161, -4.12, 43.21, 0.00, 0.00, 0.000, 0.000, 0.000, 14:02:23.453
162, -2.39, 45.03, 0.00, 0.00, 0.000, 0.000, 0.000, 14:02:23.453
163, -7.43, 39.10, 0.00, 0.00, 0.000, 0.000, 0.000, 14:02:23.468
164, -9.30, 34.52, 0.00, 0.00, 0.000, 0.000, 0.000, 14:02:23.468
165, -6.26, 40.49, 0.00, 0.00, 0.000, 0.000, 0.000, 14:02:23.482
166, -1.49, 43.81, 0.00, 0.00, 0.000, 0.000, 0.000, 14:02:23.482
167, -8.90, 36.16, 0.00, 0.00, 0.000, 0.000, 0.000, 14:02:23.482
168, -7.63, 33.23, 0.00, 0.00, 0.000, 0.000, 0.000, 14:02:23.482
169, -2.91, 40.69, 0.00, 0.00, 0.000, 0.000, 0.000, 14:02:23.498
170, -4.21, 44.95, 0.00, 0.00, 0.000, 0.000, 0.000, 14:02:23.498
171, -7.13, 34.86, 0.00, 0.00, 0.000, 0.000, 0.000, 14:02:23.513
172, -7.41, 31.97, 0.00, 0.00, 0.000, 0.000, 0.000, 14:02:23.513
173, -4.58, 41.23, 0.00, 0.00, 0.000, 0.000, 0.000, 14:02:23.520
174, -2.51, 43.35, 0.00, 0.00, 0.000, 0.000, 0.000, 14:02:23.520
175, -6.32, 29.52, 0.00, 0.00, 0.000, 0.000, 0.000, 14:02:23.528
176, -8.79, 27.88, 0.00, 0.00, 0.000, 0.000, 0.000, 14:02:23.528
177, -6.36, 40.23, 0.00, 0.00, 0.000, 0.000, 0.000, 14:02:23.542
178, -3.64, 40.61, 0.00, 0.00, 0.000, 0.000, 0.000, 14:02:23.543
179, -6.65, 36.09, 0.00, 0.00, 0.000, 0.000, 0.000, 14:02:23.543
180, -3.87, 35.81, 0.00, 0.00, 0.000, 0.000, 0.000, 14:02:23.543
181, -4.99, 43.27, 0.00, 0.00, 0.000, 0.000, 0.000, 14:02:23.557
182, -3.74, 38.95, 0.00, 0.00, 0.000, 0.000, 0.000, 14:02:23.557
183, -9.42, 33.96, 0.00, 0.00, 0.000, 0.000, 0.000, 14:02:23.572
184, -10.76, 29.95, 0.00, 0.00, 0.000, 0.000, 0.000, 14:02:23.572
185, -3.74, 38.10, 0.00, 0.00, 0.000, 0.000, 0.000, 14:02:23.572
186, -7.52, 42.13, 0.00, 0.00, 0.000, 0.000, 0.000, 14:02:23.572
187, -7.07, 32.77, 0.00, 0.00, 0.000, 0.000, 0.000, 14:02:23.587
188, -9.02, 31.73, 0.00, 0.00, 0.000, 0.000, 0.000, 14:02:23.588
189, -4.39, 39.74, 0.00, 0.00, 0.000, 0.000, 0.000, 14:02:23.602
190, -2.20, 42.09, 0.00, 0.00, 0.000, 0.000, 0.000, 14:02:23.602
191, -7.80, 37.78, 0.00, 0.00, 0.000, 0.000, 0.000, 14:02:23.602
192, -10.77, 33.49, 0.00, 0.00, 0.000, 0.000, 0.000, 14:02:23.602
193, -3.47, 39.59, 0.00, 0.00, 0.000, 0.000, 0.000, 14:02:23.617
194, -3.55, 40.42, 0.00, 0.00, 0.000, 0.000, 0.000, 14:02:23.618
195, -6.11, 33.88, 0.00, 0.00, 0.000, 0.000, 0.000, 14:02:23.633
196, -7.89, 29.64, 0.00, 0.00, 0.000, 0.000, 0.000, 14:02:23.633
197, -5.35, 39.14, 0.00, 0.00, 0.000, 0.000, 0.000, 14:02:23.633
198, -4.90, 38.87, 0.00, 0.00, 0.000, 0.000, 0.000, 14:02:23.634
199, -8.75, 33.01, 0.00, 0.00, 0.000, 0.000, 0.000, 14:02:23.647
200, -9.55, 29.53, 0.00, 0.00, 0.000, 0.000, 0.000, 14:02:23.647
0, -5.13, 39.37, 0.00, 0.00, 0.000, 0.000, 0.000, 14:02:23.648
1, -4.63, 43.41, 0.00, 0.00, 0.000, 0.000, 0.000, 14:02:23.662
2, -6.83, 36.74, 0.00, 0.00, 0.000, 0.000, 0.000, 14:02:23.662
3, -11.94, 32.61, 0.00, 0.00, 0.000, 0.000, 0.000, 14:02:23.677
4, -3.13, 41.63, 0.00, 0.00, 0.000, 0.000, 0.000, 14:02:23.677
5, -2.55, 41.16, 0.00, 0.00, 0.000, 0.000, 0.000, 14:02:23.677
6, -8.66, 32.84, 0.00, 0.00, 0.000, 0.000, 0.000, 14:02:23.677
7, -9.76, 30.81, 0.00, 0.00, 0.000, 0.000, 0.000, 14:02:23.692
8, -2.73, 41.98, 0.00, 0.00, 0.000, 0.000, 0.000, 14:02:23.692
9, -2.64, 44.45, 0.00, 0.00, 0.000, 0.000, 0.000, 14:02:23.707
10, -7.64, 41.07, 0.00, 0.00, 0.000, 0.000, 0.000, 14:02:23.707
11, -8.00, 32.97, 0.00, 0.00, 0.000, 0.000, 0.000, 14:02:23.707
12, -6.28, 43.63, 0.00, 0.00, 0.000, 0.000, 0.000, 14:02:23.707
13, -2.77, 43.25, 0.00, 0.00, 0.000, 0.000, 0.000, 14:02:23.722
14, -6.66, 38.57, 0.00, 0.00, 0.000, 0.000, 0.000, 14:02:23.722
15, -10.62, 36.11, 0.00, 0.00, 0.000, 0.000, 0.000, 14:02:23.738
16, -5.66, 41.40, 0.00, 0.00, 0.000, 0.000, 0.000, 14:02:23.738
17, -6.84, 47.03, 0.00, 0.00, 0.000, 0.000, 0.000, 14:02:23.738
18, -7.71, 38.84, 0.00, 0.00, 0.000, 0.000, 0.000, 14:02:23.738
19, -7.46, 39.28, 0.00, 0.00, 0.000, 0.000, 0.000, 14:02:23.752
20, -5.18, 44.38, 0.00, 0.00, 0.000, 0.000, 0.000, 14:02:23.752
21, -3.64, 47.81, 0.00, 0.00, 0.000, 0.000, 0.000, 14:02:23.767
22, -9.88, 38.41, 0.00, 0.00, 0.000, 0.000, 0.000, 14:02:23.767
23, -11.19, 39.46, 0.00, 0.00, 0.000, 0.000, 0.000, 14:02:23.767
24, -3.78, 42.89, 0.00, 0.00, 0.000, 0.000, 0.000, 14:02:23.768
25, -7.36, 41.28, 0.00, 0.00, 0.000, 0.000, 0.000, 14:02:23.782
26, -10.40, 38.08, 0.00, 0.00, 0.000, 0.000, 0.000, 14:02:23.782
27, -9.23, 35.76, 0.00, 0.00, 0.000, 0.000, 0.000, 14:02:23.797
28, -6.58, 39.63, 0.00, 0.00, 0.000, 0.000, 0.000, 14:02:23.797
29, -6.02, 44.19, 0.00, 0.00, 0.000, 0.000, 0.000, 14:02:23.797
30, -9.40, 34.64, 0.00, 0.00, 0.000, 0.000, 0.000, 14:02:23.797
31, -10.17, 31.88, 0.00, 0.00, 0.000, 0.000, 0.000, 14:02:23.813
32, -8.49, 40.20, 0.00, 0.00, 0.000, 0.000, 0.000, 14:02:23.813
33, -5.70, 39.67, 0.00, 0.00, 0.000, 0.000, 0.000, 14:02:23.828
34, -11.52, 35.04, 0.00, 0.00, 0.000, 0.000, 0.000, 14:02:23.828
35, -12.65, 31.62, 0.00, 0.00, 0.000, 0.000, 0.000, 14:02:23.828
36, -6.13, 41.44, 0.00, 0.00, 0.000, 0.000, 0.000, 14:02:23.828
37, -6.21, 40.73, 0.00, 0.00, 0.000, 0.000, 0.000, 14:02:23.842
38, -8.42, 30.68, 0.00, 0.00, 0.000, 0.000, 0.000, 14:02:23.842
39, -12.71, 31.69, 0.00, 0.00, 0.000, 0.000, 0.000, 14:02:23.857
40, -8.65, 39.42, 0.00, 0.00, 0.000, 0.000, 0.000, 14:02:23.858
41, -7.17, 42.26, 0.00, 0.00, 0.000, 0.000, 0.000, 14:02:23.865
42, -11.23, 31.94, 0.00, 0.00, 0.000, 0.000, 0.000, 14:02:23.865
43, -14.19, 32.74, 0.00, 0.00, 0.000, 0.000, 0.000, 14:02:23.873
44, -9.82, 40.61, 0.00, 0.00, 0.000, 0.000, 0.000, 14:02:23.873
45, -8.24, 41.78, 0.00, 0.00, 0.000, 0.000, 0.000, 14:02:23.888
46, -12.23, 33.94, 0.00, 0.00, 0.000, 0.000, 0.000, 14:02:23.888
47, -13.78, 32.91, 0.00, 0.00, 0.000, 0.000, 0.000, 14:02:23.888
48, -9.21, 40.84, 0.00, 0.00, 0.000, 0.000, 0.000, 14:02:23.888
49, -6.65, 39.88, 0.00, 0.00, 0.000, 0.000, 0.000, 14:02:23.902
50, -12.90, 34.76, 0.00, 0.00, 0.000, 0.000, 0.000, 14:02:23.902
51, -15.68, 30.84, 0.00, 0.00, 0.000, 0.000, 0.000, 14:02:23.917
52, -7.46, 39.53, 0.00, 0.00, 0.000, 0.000, 0.000, 14:02:23.917
53, -7.90, 42.24, 0.00, 0.00, 0.000, 0.000, 0.000, 14:02:23.918
54, -12.54, 34.89, 0.00, 0.00, 0.000, 0.000, 0.000, 14:02:23.918
55, -15.13, 36.55, 0.00, 0.00, 0.000, 0.000, 0.000, 14:02:23.932
56, -9.43, 42.90, 0.00, 0.00, 0.000, 0.000, 0.000, 14:02:23.932
57, -8.14, 45.21, 0.00, 0.00, 0.000, 0.000, 0.000, 14:02:23.948
58, -14.53, 34.96, 0.00, 0.00, 0.000, 0.000, 0.000, 14:02:23.948
59, -15.56, 34.74, 0.00, 0.00, 0.000, 0.000, 0.000, 14:02:23.948
60, -9.60, 43.19, 0.00, 0.00, 0.000, 0.000, 0.000, 14:02:23.948
61, -10.64, 41.36, 0.00, 0.00, 0.000, 0.000, 0.000, 14:02:23.962
62, -13.93, 29.65, 0.00, 0.00, 0.000, 0.000, 0.000, 14:02:23.962
63, -16.25, 32.07, 0.00, 0.00, 0.000, 0.000, 0.000, 14:02:23.978
64, -7.38, 41.75, 0.00, 0.00, 0.000, 0.000, 0.000, 14:02:23.978
65, -8.81, 40.96, 0.00, 0.00, 0.000, 0.000, 0.000, 14:02:23.978
66, -13.61, 34.14, 0.00, 0.00, 0.000, 0.000, 0.000, 14:02:23.978
67, -13.36, 30.40, 0.00, 0.00, 0.000, 0.000, 0.000, 14:02:23.992
68, -7.39, 39.39, 0.00, 0.00, 0.000, 0.000, 0.000, 14:02:23.992
69, -3.92, 45.40, 0.00, 0.00, 0.000, 0.000, 0.000, 14:02:24.008
70, -7.08, 35.30, 0.00, 0.00, 0.000, 0.000, 0.000, 14:02:24.008
71, -10.57, 35.44, 0.00, 0.00, 0.000, 0.000, 0.000, 14:02:24.008
72, -5.20, 43.76, 0.00, 0.00, 0.000, 0.000, 0.000, 14:02:24.008
73, -8.24, 47.74, 0.00, 0.00, 0.000, 0.000, 0.000, 14:02:24.024
74, -13.45, 37.78, 0.00, 0.00, 0.000, 0.000, 0.000, 14:02:24.024
75, -12.14, 38.04, 0.00, 0.00, 0.000, 0.000, 0.000, 14:02:24.037
76, -6.09, 45.01, 0.00, 0.00, 0.000, 0.000, 0.000, 14:02:24.037
77, -5.80, 46.02, 0.00, 0.00, 0.000, 0.000, 0.000, 14:02:24.037
78, -9.02, 37.18, 0.00, 0.00, 0.000, 0.000, 0.000, 14:02:24.037
79, -14.13, 33.30, 0.00, 0.00, 0.000, 0.000, 0.000, 14:02:24.052
80, -7.22, 43.52, 0.00, 0.00, 0.000, 0.000, 0.000, 14:02:24.052
81, -5.22, 42.99, 0.00, 0.00, 0.000, 0.000, 0.000, 14:02:24.067
82, -7.02, 40.18, 0.00, 0.00, 0.000, 0.000, 0.000, 14:02:24.067
83, -9.75, 37.10, 0.00, 0.00, 0.000, 0.000, 0.000, 14:02:24.067
84, -7.90, 44.98, 0.00, 0.00, 0.000, 0.000, 0.000, 14:02:24.067
85, -3.16, 49.03, 0.00, 0.00, 0.000, 0.000, 0.000, 14:02:24.083
86, -11.25, 41.95, 0.00, 0.00, 0.000, 0.000, 0.000, 14:02:24.083
87, -9.00, 40.59, 0.00, 0.00, 0.000, 0.000, 0.000, 14:02:24.097
88, 0.25, 45.89, 0.00, 0.00, 0.000, 0.000, 0.000, 14:02:24.097
89, -6.28, 51.58, 0.00, 0.00, 0.000, 0.000, 0.000, 14:02:24.097
90, -5.32, 41.22, 0.00, 0.00, 0.000, 0.000, 0.000, 14:02:24.097
91, -9.36, 38.38, 0.00, 0.00, 0.000, 0.000, 0.000, 14:02:24.112
92, -4.85, 48.85, 0.00, 0.00, 0.000, 0.000, 0.000, 14:02:24.113
93, -3.93, 49.70, 0.00, 0.00, 0.000, 0.000, 0.000, 14:02:24.126
94, -6.78, 42.59, 0.00, 0.00, 0.000, 0.000, 0.000, 14:02:24.127
95, -9.42, 41.19, 0.00, 0.00, 0.000, 0.000, 0.000, 14:02:24.127
96, -1.47, 47.76, 0.00, 0.00, 0.000, 0.000, 0.000, 14:02:24.127
97, -3.16, 52.04, 0.00, 0.00, 0.000, 0.000, 0.000, 14:02:24.143
98, -9.08, 41.90, 0.00, 0.00, 0.000, 0.000, 0.000, 14:02:24.143
99, -10.62, 38.27, 0.00, 0.00, 0.000, 0.000, 0.000, 14:02:24.157
100, -4.40, 44.92, 0.00, 0.00, 0.000, 0.000, 0.000, 14:02:24.157
101, -5.23, 49.15, 0.00, 0.00, 0.000, 0.000, 0.000, 14:02:24.158
102, -6.53, 41.09, 0.00, 0.00, 0.000, 0.000, 0.000, 14:02:24.158
103, -11.43, 36.83, 0.00, 0.00, 0.000, 0.000, 0.000, 14:02:24.172
104, -8.01, 42.46, 0.00, 0.00, 0.000, 0.000, 0.000, 14:02:24.172
105, -6.17, 43.92, 0.00, 0.00, 0.000, 0.000, 0.000, 14:02:24.187
106, -10.16, 37.35, 0.00, 0.00, 0.000, 0.000, 0.000, 14:02:24.187
107, -12.99, 34.83, 0.00, 0.00, 0.000, 0.000, 0.000, 14:02:24.187
108, -7.10, 38.92, 0.00, 0.00, 0.000, 0.000, 0.000, 14:02:24.187
109, -7.65, 44.58, 0.00, 0.00, 0.000, 0.000, 0.000, 14:02:24.202
110, -11.16, 35.29, 0.00, 0.00, 0.000, 0.000, 0.000, 14:02:24.202
111, -14.07, 33.20, 0.00, 0.00, 0.000, 0.000, 0.000, 14:02:24.217
112, -8.78, 38.88, 0.00, 0.00, 0.000, 0.000, 0.000, 14:02:24.217
113, -7.70, 40.55, 0.00, 0.00, 0.000, 0.000, 0.000, 14:02:24.217
114, -8.64, 38.05, 0.00, 0.00, 0.000, 0.000, 0.000, 14:02:24.217
115, -12.34, 32.61, 0.00, 0.00, 0.000, 0.000, 0.000, 14:02:24.234
116, -6.20, 39.72, 0.00, 0.00, 0.000, 0.000, 0.000, 14:02:24.234
117, -5.62, 41.71, 0.00, 0.00, 0.000, 0.000, 0.000, 14:02:24.247
118, -10.23, 35.17, 0.00, 0.00, 0.000, 0.000, 0.000, 14:02:24.247
119, -12.51, 33.03, 0.00, 0.00, 0.000, 0.000, 0.000, 14:02:24.247
120, -4.33, 39.12, 0.00, 0.00, 0.000, 0.000, 0.000, 14:02:24.247
121, -3.46, 41.29, 0.00, 0.00, 0.000, 0.000, 0.000, 14:02:24.269
122, -8.47, 36.38, 0.00, 0.00, 0.000, 0.000, 0.000, 14:02:24.269
123, -11.75, 32.99, 0.00, 0.00, 0.000, 0.000, 0.000, 14:02:24.277
124, -7.69, 40.22, 0.00, 0.00, 0.000, 0.000, 0.000, 14:02:24.277
125, -4.32, 44.50, 0.00, 0.00, 0.000, 0.000, 0.000, 14:02:24.278
126, -10.95, 42.44, 0.00, 0.00, 0.000, 0.000, 0.000, 14:02:24.278
127, -11.31, 34.72, 0.00, 0.00, 0.000, 0.000, 0.000, 14:02:24.292
128, -5.14, 43.35, 0.00, 0.00, 0.000, 0.000, 0.000, 14:02:24.292
129, -3.47, 43.71, 0.00, 0.00, 0.000, 0.000, 0.000, 14:02:24.307
130, -7.11, 37.51, 0.00, 0.00, 0.000, 0.000, 0.000, 14:02:24.307
131, -10.63, 35.56, 0.00, 0.00, 0.000, 0.000, 0.000, 14:02:24.308
132, -3.90, 46.96, 0.00, 0.00, 0.000, 0.000, 0.000, 14:02:24.308
133, -3.39, 44.55, 0.00, 0.00, 0.000, 0.000, 0.000, 14:02:24.322
134, -8.03, 38.33, 0.00, 0.00, 0.000, 0.000, 0.000, 14:02:24.323
135, -9.88, 32.14, 0.00, 0.00, 0.000, 0.000, 0.000, 14:02:24.337
136, -5.51, 38.14, 0.00, 0.00, 0.000, 0.000, 0.000, 14:02:24.337
137, -4.59, 42.52, 0.00, 0.00, 0.000, 0.000, 0.000, 14:02:24.338
138, -7.59, 37.77, 0.00, 0.00, 0.000, 0.000, 0.000, 14:02:24.338
139, -10.92, 30.06, 0.00, 0.00, 0.000, 0.000, 0.000, 14:02:24.353
140, -7.01, 39.12, 0.00, 0.00, 0.000, 0.000, 0.000, 14:02:24.353
141, -6.16, 43.20, 0.00, 0.00, 0.000, 0.000, 0.000, 14:02:24.367
142, -9.38, 32.74, 0.00, 0.00, 0.000, 0.000, 0.000, 14:02:24.367
143, -10.00, 35.79, 0.00, 0.00, 0.000, 0.000, 0.000, 14:02:24.367
144, -4.55, 38.94, 0.00, 0.00, 0.000, 0.000, 0.000, 14:02:24.368
145, -1.76, 44.00, 0.00, 0.00, 0.000, 0.000, 0.000, 14:02:24.382
146, -9.43, 37.65, 0.00, 0.00, 0.000, 0.000, 0.000, 14:02:24.382
147, -9.62, 31.67, 0.00, 0.00, 0.000, 0.000, 0.000, 14:02:24.397
148, -5.06, 42.66, 0.00, 0.00, 0.000, 0.000, 0.000, 14:02:24.397
149, -6.19, 44.56, 0.00, 0.00, 0.000, 0.000, 0.000, 14:02:24.397
150, -10.97, 37.03, 0.00, 0.00, 0.000, 0.000, 0.000, 14:02:24.398
151, -11.47, 32.88, 0.00, 0.00, 0.000, 0.000, 0.000, 14:02:24.412
152, -5.10, 37.16, 0.00, 0.00, 0.000, 0.000, 0.000, 14:02:24.412
153, -3.66, 41.70, 0.00, 0.00, 0.000, 0.000, 0.000, 14:02:24.427
154, -7.41, 36.42, 0.00, 0.00, 0.000, 0.000, 0.000, 14:02:24.427
155, -7.43, 33.67, 0.00, 0.00, 0.000, 0.000, 0.000, 14:02:24.427
156, -2.13, 41.54, 0.00, 0.00, 0.000, 0.000, 0.000, 14:02:24.427
157, -3.48, 40.64, 0.00, 0.00, 0.000, 0.000, 0.000, 14:02:24.443
158, -7.84, 34.81, 0.00, 0.00, 0.000, 0.000, 0.000, 14:02:24.443
159, -7.16, 35.50, 0.00, 0.00, 0.000, 0.000, 0.000, 14:02:24.457
160, -0.43, 44.54, 0.00, 0.00, 0.000, 0.000, 0.000, 14:02:24.457
161, -2.40, 47.30, 0.00, 0.00, 0.000, 0.000, 0.000, 14:02:24.457
162, -6.37, 41.05, 0.00, 0.00, 0.000, 0.000, 0.000, 14:02:24.458
163, -9.47, 38.31, 0.00, 0.00, 0.000, 0.000, 0.000, 14:02:24.472
164, -6.37, 42.65, 0.00, 0.00, 0.000, 0.000, 0.000, 14:02:24.472
165, -6.97, 43.44, 0.00, 0.00, 0.000, 0.000, 0.000, 14:02:24.487
166, -9.13, 37.98, 0.00, 0.00, 0.000, 0.000, 0.000, 14:02:24.487
167, -12.73, 35.71, 0.00, 0.00, 0.000, 0.000, 0.000, 14:02:24.488
168, -9.23, 43.93, 0.00, 0.00, 0.000, 0.000, 0.000, 14:02:24.488
169, -7.68, 44.93, 0.00, 0.00, 0.000, 0.000, 0.000, 14:02:24.503
170, -13.92, 35.48, 0.00, 0.00, 0.000, 0.000, 0.000, 14:02:24.503
171, -11.84, 34.51, 0.00, 0.00, 0.000, 0.000, 0.000, 14:02:24.517
172, -8.43, 39.28, 0.00, 0.00, 0.000, 0.000, 0.000, 14:02:24.517
173, -7.63, 41.67, 0.00, 0.00, 0.000, 0.000, 0.000, 14:02:24.517
174, -10.20, 36.54, 0.00, 0.00, 0.000, 0.000, 0.000, 14:02:24.517
175, -11.59, 34.53, 0.00, 0.00, 0.000, 0.000, 0.000, 14:02:24.534
176, -5.88, 40.90, 0.00, 0.00, 0.000, 0.000, 0.000, 14:02:24.534
177, -7.87, 44.61, 0.00, 0.00, 0.000, 0.000, 0.000, 14:02:24.547
178, -9.55, 37.25, 0.00, 0.00, 0.000, 0.000, 0.000, 14:02:24.547
179, -8.88, 34.79, 0.00, 0.00, 0.000, 0.000, 0.000, 14:02:24.547
180, -7.24, 42.22, 0.00, 0.00, 0.000, 0.000, 0.000, 14:02:24.547
181, -5.84, 41.74, 0.00, 0.00, 0.000, 0.000, 0.000, 14:02:24.563
182, -10.87, 37.11, 0.00, 0.00, 0.000, 0.000, 0.000, 14:02:24.563
183, -10.66, 35.78, 0.00, 0.00, 0.000, 0.000, 0.000, 14:02:24.577
184, -4.11, 41.62, 0.00, 0.00, 0.000, 0.000, 0.000, 14:02:24.577
185, -3.54, 48.31, 0.00, 0.00, 0.000, 0.000, 0.000, 14:02:24.577
186, -7.28, 39.36, 0.00, 0.00, 0.000, 0.000, 0.000, 14:02:24.577
187, -9.98, 37.30, 0.00, 0.00, 0.000, 0.000, 0.000, 14:02:24.592
188, -3.37, 44.52, 0.00, 0.00, 0.000, 0.000, 0.000, 14:02:24.592
189, -2.74, 49.12, 0.00, 0.00, 0.000, 0.000, 0.000, 14:02:24.607
190, -3.86, 37.42, 0.00, 0.00, 0.000, 0.000, 0.000, 14:02:24.607
191, -9.30, 38.15, 0.00, 0.00, 0.000, 0.000, 0.000, 14:02:24.607
192, -5.00, 45.12, 0.00, 0.00, 0.000, 0.000, 0.000, 14:02:24.607
193, -6.50, 49.12, 0.00, 0.00, 0.000, 0.000, 0.000, 14:02:24.622
194, -8.73, 38.57, 0.00, 0.00, 0.000, 0.000, 0.000, 14:02:24.622
195, -10.75, 37.32, 0.00, 0.00, 0.000, 0.000, 0.000, 14:02:24.637
196, -7.53, 41.50, 0.00, 0.00, 0.000, 0.000, 0.000, 14:02:24.637
197, -4.39, 42.21, 0.00, 0.00, 0.000, 0.000, 0.000, 14:02:24.637
198, -8.43, 37.45, 0.00, 0.00, 0.000, 0.000, 0.000, 14:02:24.637
199, -10.08, 32.38, 0.00, 0.00, 0.000, 0.000, 0.000, 14:02:24.652
200, -5.04, 38.31, 0.00, 0.00, 0.000, 0.000, 0.000, 14:02:24.652
0, -2.75, 40.98, 0.00, 0.00, 0.000, 0.000, 0.000, 14:02:24.652
1, -8.62, 36.80, 0.00, 0.00, 0.000, 0.000, 0.000, 14:02:24.668
2, -11.59, 36.32, 0.00, 0.00, 0.000, 0.000, 0.000, 14:02:24.668
3, -3.39, 42.48, 0.00, 0.00, 0.000, 0.000, 0.000, 14:02:24.682
4, -5.02, 46.78, 0.00, 0.00, 0.000, 0.000, 0.000, 14:02:24.683
5, -8.02, 37.99, 0.00, 0.00, 0.000, 0.000, 0.000, 14:02:24.683
6, -12.65, 36.66, 0.00, 0.00, 0.000, 0.000, 0.000, 14:02:24.683
7, -6.57, 44.24, 0.00, 0.00, 0.000, 0.000, 0.000, 14:02:24.698
8, -4.29, 47.52, 0.00, 0.00, 0.000, 0.000, 0.000, 14:02:24.698
9, -3.98, 39.55, 0.00, 0.00, 0.000, 0.000, 0.000, 14:02:24.713
10, -12.92, 38.31, 0.00, 0.00, 0.000, 0.000, 0.000, 14:02:24.713
11, -4.44, 41.77, 0.00, 0.00, 0.000, 0.000, 0.000, 14:02:24.713
12, -3.96, 46.47, 0.00, 0.00, 0.000, 0.000, 0.000, 14:02:24.713
13, -6.95, 41.39, 0.00, 0.00, 0.000, 0.000, 0.000, 14:02:24.727
14, -8.95, 38.61, 0.00, 0.00, 0.000, 0.000, 0.000, 14:02:24.727
15, -0.10, 43.15, 0.00, 0.00, 0.000, 0.000, 0.000, 14:02:24.742
16, -3.34, 46.71, 0.00, 0.00, 0.000, 0.000, 0.000, 14:02:24.742
17, -4.11, 38.62, 0.00, 0.00, 0.000, 0.000, 0.000, 14:02:24.749
18, -6.34, 34.75, 0.00, 0.00, 0.000, 0.000, 0.000, 14:02:24.750
19, -4.18, 42.60, 0.00, 0.00, 0.000, 0.000, 0.000, 14:02:24.757
20, -2.26, 46.00, 0.00, 0.00, 0.000, 0.000, 0.000, 14:02:24.758
21, -5.90, 38.65, 0.00, 0.00, 0.000, 0.000, 0.000, 14:02:24.771
22, -8.40, 34.40, 0.00, 0.00, 0.000, 0.000, 0.000, 14:02:24.771
23, -4.79, 39.81, 0.00, 0.00, 0.000, 0.000, 0.000, 14:02:24.773
24, -1.90, 39.38, 0.00, 0.00, 0.000, 0.000, 0.000, 14:02:24.773
25, -5.97, 37.49, 0.00, 0.00, 0.000, 0.000, 0.000, 14:02:24.788
26, -9.85, 30.37, 0.00, 0.00, 0.000, 0.000, 0.000, 14:02:24.788
27, -5.93, 40.51, 0.00, 0.00, 0.000, 0.000, 0.000, 14:02:24.803
28, -1.18, 42.37, 0.00, 0.00, 0.000, 0.000, 0.000, 14:02:24.803
29, -8.32, 32.04, 0.00, 0.00, 0.000, 0.000, 0.000, 14:02:24.803
30, -4.63, 28.55, 0.00, 0.00, 0.000, 0.000, 0.000, 14:02:24.803
31, -2.82, 36.61, 0.00, 0.00, 0.000, 0.000, 0.000, 14:02:24.817
32, -2.49, 41.68, 0.00, 0.00, 0.000, 0.000, 0.000, 14:02:24.817
33, -4.92, 30.75, 0.00, 0.00, 0.000, 0.000, 0.000, 14:02:24.833
34, -8.95, 28.66, 0.00, 0.00, 0.000, 0.000, 0.000, 14:02:24.833
35, -5.84, 39.66, 0.00, 0.00, 0.000, 0.000, 0.000, 14:02:24.833
36, -3.92, 40.50, 0.00, 0.00, 0.000, 0.000, 0.000, 14:02:24.833
37, -7.06, 32.92, 0.00, 0.00, 0.000, 0.000, 0.000, 14:02:24.848
38, -10.39, 27.77, 0.00, 0.00, 0.000, 0.000, 0.000, 14:02:24.848
39, -4.59, 38.10, 0.00, 0.00, 0.000, 0.000, 0.000, 14:02:24.862
40, -5.34, 39.18, 0.00, 0.00, 0.000, 0.000, 0.000, 14:02:24.862
41, -11.43, 30.35, 0.00, 0.00, 0.000, 0.000, 0.000, 14:02:24.862
42, -10.28, 27.38, 0.00, 0.00, 0.000, 0.000, 0.000, 14:02:24.863
43, -4.71, 37.88, 0.00, 0.00, 0.000, 0.000, 0.000, 14:02:24.877
44, -3.88, 39.67, 0.00, 0.00, 0.000, 0.000, 0.000, 14:02:24.877
45, -9.39, 27.54, 0.00, 0.00, 0.000, 0.000, 0.000, 14:02:24.892
46, -8.63, 27.41, 0.00, 0.00, 0.000, 0.000, 0.000, 14:02:24.892
47, -6.83, 34.72, 0.00, 0.00, 0.000, 0.000, 0.000, 14:02:24.892
48, -8.31, 36.43, 0.00, 0.00, 0.000, 0.000, 0.000, 14:02:24.892
49, -7.77, 28.77, 0.00, 0.00, 0.000, 0.000, 0.000, 14:02:24.907
50, -8.73, 27.50, 0.00, 0.00, 0.000, 0.000, 0.000, 14:02:24.907
51, -3.45, 36.13, 0.00, 0.00, 0.000, 0.000, 0.000, 14:02:24.922
52, -2.53, 38.89, 0.00, 0.00, 0.000, 0.000, 0.000, 14:02:24.922
53, -7.48, 32.01, 0.00, 0.00, 0.000, 0.000, 0.000, 14:02:24.922
54, -8.95, 27.43, 0.00, 0.00, 0.000, 0.000, 0.000, 14:02:24.922
55, -6.46, 36.85, 0.00, 0.00, 0.000, 0.000, 0.000, 14:02:24.937
56, -7.16, 38.62, 0.00, 0.00, 0.000, 0.000, 0.000, 14:02:24.937
57, -8.29, 28.66, 0.00, 0.00, 0.000, 0.000, 0.000, 14:02:24.952
58, -6.99, 28.11, 0.00, 0.00, 0.000, 0.000, 0.000, 14:02:24.952
59, -5.26, 36.72, 0.00, 0.00, 0.000, 0.000, 0.000, 14:02:24.952
60, -3.80, 39.05, 0.00, 0.00, 0.000, 0.000, 0.000, 14:02:24.953
61, -7.32, 34.42, 0.00, 0.00, 0.000, 0.000, 0.000, 14:02:24.967
62, -11.94, 30.04, 0.00, 0.00, 0.000, 0.000, 0.000, 14:02:24.967
63, -8.17, 39.93, 0.00, 0.00, 0.000, 0.000, 0.000, 14:02:24.982
64, -4.94, 39.26, 0.00, 0.00, 0.000, 0.000, 0.000, 14:02:24.982
65, -8.65, 30.33, 0.00, 0.00, 0.000, 0.000, 0.000, 14:02:24.982
66, -12.21, 28.41, 0.00, 0.00, 0.000, 0.000, 0.000, 14:02:24.982
67, -8.07, 37.25, 0.00, 0.00, 0.000, 0.000, 0.000, 14:02:24.997
68, -7.14, 40.96, 0.00, 0.00, 0.000, 0.000, 0.000, 14:02:24.997
69, -7.33, 33.78, 0.00, 0.00, 0.000, 0.000, 0.000, 14:02:25.012
70, -11.43, 29.61, 0.00, 0.00, 0.000, 0.000, 0.000, 14:02:25.012
71, -8.02, 40.83, 0.00, 0.00, 0.000, 0.000, 0.000, 14:02:25.013
72, -4.80, 44.16, 0.00, 0.00, 0.000, 0.000, 0.000, 14:02:25.013
73, -8.01, 37.67, 0.00, 0.00, 0.000, 0.000, 0.000, 14:02:25.027
74, -9.93, 32.46, 0.00, 0.00, 0.000, 0.000, 0.000, 14:02:25.027
75, -6.38, 41.74, 0.00, 0.00, 0.000, 0.000, 0.000, 14:02:25.042
76, -4.33, 46.38, 0.00, 0.00, 0.000, 0.000, 0.000, 14:02:25.042
77, -5.27, 38.26, 0.00, 0.00, 0.000, 0.000, 0.000, 14:02:25.050
78, -6.60, 33.54, 0.00, 0.00, 0.000, 0.000, 0.000, 14:02:25.050
79, -2.92, 40.00, 0.00, 0.00, 0.000, 0.000, 0.000, 14:02:25.057
80, -5.03, 43.39, 0.00, 0.00, 0.000, 0.000, 0.000, 14:02:25.057
81, -12.37, 37.81, 0.00, 0.00, 0.000, 0.000, 0.000, 14:02:25.072
82, -12.57, 31.93, 0.00, 0.00, 0.000, 0.000, 0.000, 14:02:25.072
83, -6.78, 39.42, 0.00, 0.00, 0.000, 0.000, 0.000, 14:02:25.073
84, -4.87, 44.21, 0.00, 0.00, 0.000, 0.000, 0.000, 14:02:25.073
85, -10.77, 36.09, 0.00, 0.00, 0.000, 0.000, 0.000, 14:02:25.088
86, -8.44, 34.37, 0.00, 0.00, 0.000, 0.000, 0.000, 14:02:25.088
87, -3.52, 40.59, 0.00, 0.00, 0.000, 0.000, 0.000, 14:02:25.102
88, -3.46, 41.07, 0.00, 0.00, 0.000, 0.000, 0.000, 14:02:25.102
89, -6.22, 37.14, 0.00, 0.00, 0.000, 0.000, 0.000, 14:02:25.102
90, -8.59, 31.33, 0.00, 0.00, 0.000, 0.000, 0.000, 14:02:25.102
91, -6.75, 39.90, 0.00, 0.00, 0.000, 0.000, 0.000, 14:02:25.117
92, -5.20, 38.92, 0.00, 0.00, 0.000, 0.000, 0.000, 14:02:25.118
93, -10.00, 31.47, 0.00, 0.00, 0.000, 0.000, 0.000, 14:02:25.133
94, -10.56, 31.96, 0.00, 0.00, 0.000, 0.000, 0.000, 14:02:25.133
95, -8.22, 40.47, 0.00, 0.00, 0.000, 0.000, 0.000, 14:02:25.133
96, -4.86, 43.46, 0.00, 0.00, 0.000, 0.000, 0.000, 14:02:25.133
97, -7.29, 39.20, 0.00, 0.00, 0.000, 0.000, 0.000, 14:02:25.148
98, -12.45, 35.31, 0.00, 0.00, 0.000, 0.000, 0.000, 14:02:25.148
99, -6.64, 39.02, 0.00, 0.00, 0.000, 0.000, 0.000, 14:02:25.162
100, -6.24, 41.75, 0.00, 0.00, 0.000, 0.000, 0.000, 14:02:25.162
101, -9.70, 31.85, 0.00, 0.00, 0.000, 0.000, 0.000, 14:02:25.162
102, -9.47, 31.74, 0.00, 0.00, 0.000, 0.000, 0.000, 14:02:25.162
103, -4.20, 38.23, 0.00, 0.00, 0.000, 0.000, 0.000, 14:02:25.177
104, -5.14, 40.50, 0.00, 0.00, 0.000, 0.000, 0.000, 14:02:25.177
105, -9.11, 36.96, 0.00, 0.00, 0.000, 0.000, 0.000, 14:02:25.192
106, -9.04, 35.28, 0.00, 0.00, 0.000, 0.000, 0.000, 14:02:25.192
107, -6.13, 38.39, 0.00, 0.00, 0.000, 0.000, 0.000, 14:02:25.192
108, -3.64, 42.39, 0.00, 0.00, 0.000, 0.000, 0.000, 14:02:25.192
109, -6.95, 35.58, 0.00, 0.00, 0.000, 0.000, 0.000, 14:02:25.207
110, -9.29, 36.73, 0.00, 0.00, 0.000, 0.000, 0.000, 14:02:25.207
111, -2.91, 40.68, 0.00, 0.00, 0.000, 0.000, 0.000, 14:02:25.222
112, -4.32, 43.42, 0.00, 0.00, 0.000, 0.000, 0.000, 14:02:25.222
113, -8.39, 37.02, 0.00, 0.00, 0.000, 0.000, 0.000, 14:02:25.223
114, -7.45, 34.51, 0.00, 0.00, 0.000, 0.000, 0.000, 14:02:25.223
115, -6.62, 40.53, 0.00, 0.00, 0.000, 0.000, 0.000, 14:02:25.237
116, -7.07, 44.49, 0.00, 0.00, 0.000, 0.000, 0.000, 14:02:25.237
117, -10.55, 34.06, 0.00, 0.00, 0.000, 0.000, 0.000, 14:02:25.252
118, -10.90, 32.14, 0.00, 0.00, 0.000, 0.000, 0.000, 14:02:25.253
119, -5.98, 39.15, 0.00, 0.00, 0.000, 0.000, 0.000, 14:02:25.253
120, -4.99, 39.34, 0.00, 0.00, 0.000, 0.000, 0.000, 14:02:25.253
121, -8.47, 34.76, 0.00, 0.00, 0.000, 0.000, 0.000, 14:02:25.269
122, -11.15, 26.83, 0.00, 0.00, 0.000, 0.000, 0.000, 14:02:25.269
123, -4.22, 37.08, 0.00, 0.00, 0.000, 0.000, 0.000, 14:02:25.283
124, -7.84, 37.86, 0.00, 0.00, 0.000, 0.000, 0.000, 14:02:25.283
125, -10.85, 29.35, 0.00, 0.00, 0.000, 0.000, 0.000, 14:02:25.283
126, -10.28, 25.88, 0.00, 0.00, 0.000, 0.000, 0.000, 14:02:25.283
127, -6.79, 37.18, 0.00, 0.00, 0.000, 0.000, 0.000, 14:02:25.298
128, -4.41, 38.42, 0.00, 0.00, 0.000, 0.000, 0.000, 14:02:25.298
129, -7.48, 29.44, 0.00, 0.00, 0.000, 0.000, 0.000, 14:02:25.313
130, -5.53, 26.18, 0.00, 0.00, 0.000, 0.000, 0.000, 14:02:25.313
131, -4.77, 38.46, 0.00, 0.00, 0.000, 0.000, 0.000, 14:02:25.313
132, -8.08, 41.27, 0.00, 0.00, 0.000, 0.000, 0.000, 14:02:25.313
133, -11.14, 34.31, 0.00, 0.00, 0.000, 0.000, 0.000, 14:02:25.327
134, -11.90, 28.33, 0.00, 0.00, 0.000, 0.000, 0.000, 14:02:25.327
135, -7.68, 35.93, 0.00, 0.00, 0.000, 0.000, 0.000, 14:02:25.342
136, -6.82, 38.90, 0.00, 0.00, 0.000, 0.000, 0.000, 14:02:25.342
137, -11.04, 31.55, 0.00, 0.00, 0.000, 0.000, 0.000, 14:02:25.342
138, -9.11, 30.04, 0.00, 0.00, 0.000, 0.000, 0.000, 14:02:25.342
139, -1.86, 36.58, 0.00, 0.00, 0.000, 0.000, 0.000, 14:02:25.364
140, -5.85, 38.23, 0.00, 0.00, 0.000, 0.000, 0.000, 14:02:25.364
141, -8.91, 31.60, 0.00, 0.00, 0.000, 0.000, 0.000, 14:02:25.372
142, -10.71, 29.99, 0.00, 0.00, 0.000, 0.000, 0.000, 14:02:25.372
143, -6.73, 38.62, 0.00, 0.00, 0.000, 0.000, 0.000, 14:02:25.373
144, -4.91, 39.79, 0.00, 0.00, 0.000, 0.000, 0.000, 14:02:25.373
145, -7.54, 36.90, 0.00, 0.00, 0.000, 0.000, 0.000, 14:02:25.387
146, -12.99, 30.53, 0.00, 0.00, 0.000, 0.000, 0.000, 14:02:25.388
147, -5.13, 38.44, 0.00, 0.00, 0.000, 0.000, 0.000, 14:02:25.402
148, -5.55, 38.64, 0.00, 0.00, 0.000, 0.000, 0.000, 14:02:25.402
149, -8.40, 34.00, 0.00, 0.00, 0.000, 0.000, 0.000, 14:02:25.402
150, -8.57, 31.56, 0.00, 0.00, 0.000, 0.000, 0.000, 14:02:25.402
151, -5.51, 38.87, 0.00, 0.00, 0.000, 0.000, 0.000, 14:02:25.417
152, -3.18, 43.79, 0.00, 0.00, 0.000, 0.000, 0.000, 14:02:25.417
153, -5.68, 35.07, 0.00, 0.00, 0.000, 0.000, 0.000, 14:02:25.433
154, -9.07, 31.05, 0.00, 0.00, 0.000, 0.000, 0.000, 14:02:25.433
155, -6.89, 39.54, 0.00, 0.00, 0.000, 0.000, 0.000, 14:02:25.433
156, -5.08, 40.12, 0.00, 0.00, 0.000, 0.000, 0.000, 14:02:25.433
157, -10.48, 32.54, 0.00, 0.00, 0.000, 0.000, 0.000, 14:02:25.448
158, -12.97, 28.72, 0.00, 0.00, 0.000, 0.000, 0.000, 14:02:25.448
159, -6.52, 35.69, 0.00, 0.00, 0.000, 0.000, 0.000, 14:02:25.462
160, -6.69, 38.41, 0.00, 0.00, 0.000, 0.000, 0.000, 14:02:25.462
161, -6.28, 32.11, 0.00, 0.00, 0.000, 0.000, 0.000, 14:02:25.462
162, -9.38, 31.19, 0.00, 0.00, 0.000, 0.000, 0.000, 14:02:25.463
163, -4.31, 41.02, 0.00, 0.00, 0.000, 0.000, 0.000, 14:02:25.477
164, -3.97, 43.21, 0.00, 0.00, 0.000, 0.000, 0.000, 14:02:25.477
165, -10.80, 37.17, 0.00, 0.00, 0.000, 0.000, 0.000, 14:02:25.492
166, -11.84, 32.98, 0.00, 0.00, 0.000, 0.000, 0.000, 14:02:25.492
167, -9.65, 41.51, 0.00, 0.00, 0.000, 0.000, 0.000, 14:02:25.493
168, -7.04, 41.88, 0.00, 0.00, 0.000, 0.000, 0.000, 14:02:25.493
169, -11.78, 36.92, 0.00, 0.00, 0.000, 0.000, 0.000, 14:02:25.515
170, -13.95, 33.02, 0.00, 0.00, 0.000, 0.000, 0.000, 14:02:25.515
171, -7.74, 38.67, 0.00, 0.00, 0.000, 0.000, 0.000, 14:02:25.522
172, -5.18, 41.55, 0.00, 0.00, 0.000, 0.000, 0.000, 14:02:25.522
173, -12.97, 38.53, 0.00, 0.00, 0.000, 0.000, 0.000, 14:02:25.522
174, -11.13, 33.42, 0.00, 0.00, 0.000, 0.000, 0.000, 14:02:25.523
175, -10.71, 38.07, 0.00, 0.00, 0.000, 0.000, 0.000, 14:02:25.537
176, -9.42, 41.32, 0.00, 0.00, 0.000, 0.000, 0.000, 14:02:25.537
177, -9.39, 34.11, 0.00, 0.00, 0.000, 0.000, 0.000, 14:02:25.552
178, -13.17, 28.64, 0.00, 0.00, 0.000, 0.000, 0.000, 14:02:25.552
179, -12.77, 37.74, 0.00, 0.00, 0.000, 0.000, 0.000, 14:02:25.554
180, -4.47, 39.25, 0.00, 0.00, 0.000, 0.000, 0.000, 14:02:25.554
181, -9.11, 30.47, 0.00, 0.00, 0.000, 0.000, 0.000, 14:02:25.568
182, -10.79, 29.40, 0.00, 0.00, 0.000, 0.000, 0.000, 14:02:25.568
183, -4.75, 40.82, 0.00, 0.00, 0.000, 0.000, 0.000, 14:02:25.582
184, -6.27, 43.12, 0.00, 0.00, 0.000, 0.000, 0.000, 14:02:25.582
185, -9.08, 35.15, 0.00, 0.00, 0.000, 0.000, 0.000, 14:02:25.582
186, -11.92, 32.37, 0.00, 0.00, 0.000, 0.000, 0.000, 14:02:25.582
187, -8.44, 40.57, 0.00, 0.00, 0.000, 0.000, 0.000, 14:02:25.597
188, -5.15, 40.85, 0.00, 0.00, 0.000, 0.000, 0.000, 14:02:25.597
189, -6.05, 37.61, 0.00, 0.00, 0.000, 0.000, 0.000, 14:02:25.613
190, -11.00, 33.09, 0.00, 0.00, 0.000, 0.000, 0.000, 14:02:25.613
191, -7.18, 38.76, 0.00, 0.00, 0.000, 0.000, 0.000, 14:02:25.613
192, -4.16, 39.37, 0.00, 0.00, 0.000, 0.000, 0.000, 14:02:25.613
193, -8.03, 34.73, 0.00, 0.00, 0.000, 0.000, 0.000, 14:02:25.627
194, -12.84, 32.86, 0.00, 0.00, 0.000, 0.000, 0.000, 14:02:25.627
195, -7.43, 38.62, 0.00, 0.00, 0.000, 0.000, 0.000, 14:02:25.642
196, -6.12, 42.49, 0.00, 0.00, 0.000, 0.000, 0.000, 14:02:25.642
197, -11.03, 36.27, 0.00, 0.00, 0.000, 0.000, 0.000, 14:02:25.642
198, -12.19, 29.53, 0.00, 0.00, 0.000, 0.000, 0.000, 14:02:25.642
199, -5.32, 40.98, 0.00, 0.00, 0.000, 0.000, 0.000, 14:02:25.657
200, -3.65, 43.73, 0.00, 0.00, 0.000, 0.000, 0.000, 14:02:25.657
0, -5.71, 32.37, 0.00, 0.00, 0.000, 0.000, 0.000, 14:02:25.658
1, -8.30, 28.97, 0.00, 0.00, 0.000, 0.000, 0.000, 14:02:25.672
2, -7.63, 37.60, 0.00, 0.00, 0.000, 0.000, 0.000, 14:02:25.672
3, -7.71, 38.51, 0.00, 0.00, 0.000, 0.000, 0.000, 14:02:25.687
4, -4.75, 30.91, 0.00, 0.00, 0.000, 0.000, 0.000, 14:02:25.687
5, -8.49, 27.89, 0.00, 0.00, 0.000, 0.000, 0.000, 14:02:25.687
6, -2.99, 38.76, 0.00, 0.00, 0.000, 0.000, 0.000, 14:02:25.687
7, -5.17, 42.00, 0.00, 0.00, 0.000, 0.000, 0.000, 14:02:25.702
8, -9.87, 35.62, 0.00, 0.00, 0.000, 0.000, 0.000, 14:02:25.703
9, -10.89, 27.87, 0.00, 0.00, 0.000, 0.000, 0.000, 14:02:25.718
10, -4.92, 39.79, 0.00, 0.00, 0.000, 0.000, 0.000, 14:02:25.718
11, -2.98, 43.97, 0.00, 0.00, 0.000, 0.000, 0.000, 14:02:25.718
12, -8.85, 36.36, 0.00, 0.00, 0.000, 0.000, 0.000, 14:02:25.718
13, -9.91, 33.89, 0.00, 0.00, 0.000, 0.000, 0.000, 14:02:25.732
14, -6.45, 44.10, 0.00, 0.00, 0.000, 0.000, 0.000, 14:02:25.732
15, -4.02, 49.13, 0.00, 0.00, 0.000, 0.000, 0.000, 14:02:25.748
16, -4.72, 39.89, 0.00, 0.00, 0.000, 0.000, 0.000, 14:02:25.748
17, -11.66, 35.42, 0.00, 0.00, 0.000, 0.000, 0.000, 14:02:25.748
18, -7.03, 42.60, 0.00, 0.00, 0.000, 0.000, 0.000, 14:02:25.748
19, -6.94, 42.43, 0.00, 0.00, 0.000, 0.000, 0.000, 14:02:25.762
20, -9.31, 36.20, 0.00, 0.00, 0.000, 0.000, 0.000, 14:02:25.762
21, -10.69, 32.97, 0.00, 0.00, 0.000, 0.000, 0.000, 14:02:25.778
22, -5.65, 39.76, 0.00, 0.00, 0.000, 0.000, 0.000, 14:02:25.778
23, -2.95, 41.17, 0.00, 0.00, 0.000, 0.000, 0.000, 14:02:25.778
24, -5.74, 35.14, 0.00, 0.00, 0.000, 0.000, 0.000, 14:02:25.778
25, -8.28, 32.63, 0.00, 0.00, 0.000, 0.000, 0.000, 14:02:25.792
26, -8.37, 39.23, 0.00, 0.00, 0.000, 0.000, 0.000, 14:02:25.792
27, -6.40, 44.30, 0.00, 0.00, 0.000, 0.000, 0.000, 14:02:25.807
28, -9.57, 37.49, 0.00, 0.00, 0.000, 0.000, 0.000, 14:02:25.807
29, -9.02, 29.50, 0.00, 0.00, 0.000, 0.000, 0.000, 14:02:25.807
30, -4.29, 38.52, 0.00, 0.00, 0.000, 0.000, 0.000, 14:02:25.807
31, -7.29, 41.30, 0.00, 0.00, 0.000, 0.000, 0.000, 14:02:25.822
32, -6.95, 35.83, 0.00, 0.00, 0.000, 0.000, 0.000, 14:02:25.823
33, -7.97, 32.12, 0.00, 0.00, 0.000, 0.000, 0.000, 14:02:25.837
34, -4.01, 39.40, 0.00, 0.00, 0.000, 0.000, 0.000, 14:02:25.837
35, -3.67, 43.94, 0.00, 0.00, 0.000, 0.000, 0.000, 14:02:25.838
36, -6.60, 34.54, 0.00, 0.00, 0.000, 0.000, 0.000, 14:02:25.838
37, -9.15, 30.98, 0.00, 0.00, 0.000, 0.000, 0.000, 14:02:25.853
38, -4.40, 38.30, 0.00, 0.00, 0.000, 0.000, 0.000, 14:02:25.853
39, -4.55, 43.75, 0.00, 0.00, 0.000, 0.000, 0.000, 14:02:25.867
40, -8.34, 37.02, 0.00, 0.00, 0.000, 0.000, 0.000, 14:02:25.867
41, -10.81, 32.42, 0.00, 0.00, 0.000, 0.000, 0.000, 14:02:25.867
42, -8.08, 38.07, 0.00, 0.00, 0.000, 0.000, 0.000, 14:02:25.867
43, -1.54, 42.10, 0.00, 0.00, 0.000, 0.000, 0.000, 14:02:25.883
44, -7.12, 35.57, 0.00, 0.00, 0.000, 0.000, 0.000, 14:02:25.883
45, -9.19, 27.61, 0.00, 0.00, 0.000, 0.000, 0.000, 14:02:25.897
46, -2.64, 38.08, 0.00, 0.00, 0.000, 0.000, 0.000, 14:02:25.897
47, -1.59, 42.52, 0.00, 0.00, 0.000, 0.000, 0.000, 14:02:25.897
48, -5.06, 32.76, 0.00, 0.00, 0.000, 0.000, 0.000, 14:02:25.898
49, -8.71, 30.12, 0.00, 0.00, 0.000, 0.000, 0.000, 14:02:25.913
50, -5.20, 38.89, 0.00, 0.00, 0.000, 0.000, 0.000, 14:02:25.913
51, -2.66, 38.98, 0.00, 0.00, 0.000, 0.000, 0.000, 14:02:25.927
52, -3.94, 34.29, 0.00, 0.00, 0.000, 0.000, 0.000, 14:02:25.928
53, -5.86, 32.11, 0.00, 0.00, 0.000, 0.000, 0.000, 14:02:25.928
54, -1.10, 38.12, 0.00, 0.00, 0.000, 0.000, 0.000, 14:02:25.928
55, -2.34, 44.35, 0.00, 0.00, 0.000, 0.000, 0.000, 14:02:25.943
56, -6.34, 32.89, 0.00, 0.00, 0.000, 0.000, 0.000, 14:02:25.943
57, -6.02, 30.97, 0.00, 0.00, 0.000, 0.000, 0.000, 14:02:25.957
58, -3.41, 40.65, 0.00, 0.00, 0.000, 0.000, 0.000, 14:02:25.957
59, 1.58, 41.41, 0.00, 0.00, 0.000, 0.000, 0.000, 14:02:25.958
60, -2.82, 34.75, 0.00, 0.00, 0.000, 0.000, 0.000, 14:02:25.958
61, -6.01, 31.43, 0.00, 0.00, 0.000, 0.000, 0.000, 14:02:25.972
62, 0.09, 40.71, 0.00, 0.00, 0.000, 0.000, 0.000, 14:02:25.972
63, 1.46, 44.51, 0.00, 0.00, 0.000, 0.000, 0.000, 14:02:25.988
64, -2.55, 38.52, 0.00, 0.00, 0.000, 0.000, 0.000, 14:02:25.988
65, -8.30, 33.06, 0.00, 0.00, 0.000, 0.000, 0.000, 14:02:25.988
66, -6.19, 40.29, 0.00, 0.00, 0.000, 0.000, 0.000, 14:02:25.988
67, -3.67, 42.94, 0.00, 0.00, 0.000, 0.000, 0.000, 14:02:26.003
68, -3.34, 33.93, 0.00, 0.00, 0.000, 0.000, 0.000, 14:02:26.003
69, -3.74, 29.52, 0.00, 0.00, 0.000, 0.000, 0.000, 14:02:26.017
70, 0.34, 37.40, 0.00, 0.00, 0.000, 0.000, 0.000, 14:02:26.017
71, -0.19, 38.74, 0.00, 0.00, 0.000, 0.000, 0.000, 14:02:26.017
72, -5.10, 32.20, 0.00, 0.00, 0.000, 0.000, 0.000, 14:02:26.018
73, -8.21, 29.01, 0.00, 0.00, 0.000, 0.000, 0.000, 14:02:26.032
74, -1.89, 40.06, 0.00, 0.00, 0.000, 0.000, 0.000, 14:02:26.032
75, -1.58, 43.45, 0.00, 0.00, 0.000, 0.000, 0.000, 14:02:26.047
76, -5.93, 33.94, 0.00, 0.00, 0.000, 0.000, 0.000, 14:02:26.047
77, -7.43, 27.99, 0.00, 0.00, 0.000, 0.000, 0.000, 14:02:26.047
78, -2.30, 36.43, 0.00, 0.00, 0.000, 0.000, 0.000, 14:02:26.047
79, 2.46, 41.90, 0.00, 0.00, 0.000, 0.000, 0.000, 14:02:26.063
80, -2.86, 36.00, 0.00, 0.00, 0.000, 0.000, 0.000, 14:02:26.063
81, -1.19, 33.41, 0.00, 0.00, 0.000, 0.000, 0.000, 14:02:26.077
82, -3.42, 37.86, 0.00, 0.00, 0.000, 0.000, 0.000, 14:02:26.077
83, 2.61, 44.97, 0.00, 0.00, 0.000, 0.000, 0.000, 14:02:26.077
84, -5.40, 36.65, 0.00, 0.00, 0.000, 0.000, 0.000, 14:02:26.078
85, -6.52, 34.41, 0.00, 0.00, 0.000, 0.000, 0.000, 14:02:26.092
86, 1.62, 39.28, 0.00, 0.00, 0.000, 0.000, 0.000, 14:02:26.092
87, 3.31, 42.21, 0.00, 0.00, 0.000, 0.000, 0.000, 14:02:26.107
88, -2.29, 32.58, 0.00, 0.00, 0.000, 0.000, 0.000, 14:02:26.108
89, -5.67, 28.02, 0.00, 0.00, 0.000, 0.000, 0.000, 14:02:26.108
90, -2.39, 38.15, 0.00, 0.00, 0.000, 0.000, 0.000, 14:02:26.108
91, 0.54, 39.68, 0.00, 0.00, 0.000, 0.000, 0.000, 14:02:26.122
92, -4.67, 32.16, 0.00, 0.00, 0.000, 0.000, 0.000, 14:02:26.122
93, -4.41, 27.07, 0.00, 0.00, 0.000, 0.000, 0.000, 14:02:26.137
94, 0.71, 36.54, 0.00, 0.00, 0.000, 0.000, 0.000, 14:02:26.138
95, 0.84, 41.77, 0.00, 0.00, 0.000, 0.000, 0.000, 14:02:26.145
96, -4.84, 33.85, 0.00, 0.00, 0.000, 0.000, 0.000, 14:02:26.145
97, -9.10, 30.86, 0.00, 0.00, 0.000, 0.000, 0.000, 14:02:26.153
98, 0.82, 34.04, 0.00, 0.00, 0.000, 0.000, 0.000, 14:02:26.153
99, -0.87, 39.75, 0.00, 0.00, 0.000, 0.000, 0.000, 14:02:26.168
100, -3.42, 35.59, 0.00, 0.00, 0.000, 0.000, 0.000, 14:02:26.168
101, -6.35, 31.47, 0.00, 0.00, 0.000, 0.000, 0.000, 14:02:26.168
102, 1.06, 37.82, 0.00, 0.00, 0.000, 0.000, 0.000, 14:02:26.168
103, 1.72, 40.40, 0.00, 0.00, 0.000, 0.000, 0.000, 14:02:26.182
104, -5.17, 32.88, 0.00, 0.00, 0.000, 0.000, 0.000, 14:02:26.183
105, -4.24, 30.38, 0.00, 0.00, 0.000, 0.000, 0.000, 14:02:26.196
106, -2.11, 38.03, 0.00, 0.00, 0.000, 0.000, 0.000, 14:02:26.197
107, 1.29, 40.71, 0.00, 0.00, 0.000, 0.000, 0.000, 14:02:26.197
108, -3.41, 33.23, 0.00, 0.00, 0.000, 0.000, 0.000, 14:02:26.197
109, 0.16, 28.33, 0.00, 0.00, 0.000, 0.000, 0.000, 14:02:26.212
110, 1.05, 39.57, 0.00, 0.00, 0.000, 0.000, 0.000, 14:02:26.212
111, 0.88, 41.22, 0.00, 0.00, 0.000, 0.000, 0.000, 14:02:26.227
112, -3.09, 36.72, 0.00, 0.00, 0.000, 0.000, 0.000, 14:02:26.227
113, -4.83, 30.00, 0.00, 0.00, 0.000, 0.000, 0.000, 14:02:26.227
114, -0.15, 36.45, 0.00, 0.00, 0.000, 0.000, 0.000, 14:02:26.227
115, 0.04, 38.80, 0.00, 0.00, 0.000, 0.000, 0.000, 14:02:26.243
116, -3.42, 30.65, 0.00, 0.00, 0.000, 0.000, 0.000, 14:02:26.243
117, -8.19, 28.81, 0.00, 0.00, 0.000, 0.000, 0.000, 14:02:26.257
118, -3.72, 36.57, 0.00, 0.00, 0.000, 0.000, 0.000, 14:02:26.257
119, -1.56, 40.53, 0.00, 0.00, 0.000, 0.000, 0.000, 14:02:26.257
120, -6.78, 28.47, 0.00, 0.00, 0.000, 0.000, 0.000, 14:02:26.257
121, -4.59, 27.03, 0.00, 0.00, 0.000, 0.000, 0.000, 14:02:26.272
122, 0.17, 36.83, 0.00, 0.00, 0.000, 0.000, 0.000, 14:02:26.272
123, 3.17, 39.63, 0.00, 0.00, 0.000, 0.000, 0.000, 14:02:26.287
124, -0.63, 31.62, 0.00, 0.00, 0.000, 0.000, 0.000, 14:02:26.287
125, -5.00, 30.06, 0.00, 0.00, 0.000, 0.000, 0.000, 14:02:26.287
126, 0.96, 39.25, 0.00, 0.00, 0.000, 0.000, 0.000, 14:02:26.287
127, 2.34, 43.75, 0.00, 0.00, 0.000, 0.000, 0.000, 14:02:26.303
128, -3.73, 37.34, 0.00, 0.00, 0.000, 0.000, 0.000, 14:02:26.303
129, -6.71, 31.94, 0.00, 0.00, 0.000, 0.000, 0.000, 14:02:26.317
130, 1.35, 34.84, 0.00, 0.00, 0.000, 0.000, 0.000, 14:02:26.317
131, 4.35, 40.07, 0.00, 0.00, 0.000, 0.000, 0.000, 14:02:26.317
132, -2.40, 32.60, 0.00, 0.00, 0.000, 0.000, 0.000, 14:02:26.317
133, -2.47, 30.78, 0.00, 0.00, 0.000, 0.000, 0.000, 14:02:26.333
134, 2.37, 36.87, 0.00, 0.00, 0.000, 0.000, 0.000, 14:02:26.333
135, 3.86, 38.36, 0.00, 0.00, 0.000, 0.000, 0.000, 14:02:26.348
136, -2.87, 29.36, 0.00, 0.00, 0.000, 0.000, 0.000, 14:02:26.348
137, -3.61, 22.07, 0.00, 0.00, 0.000, 0.000, 0.000, 14:02:26.348
138, -0.19, 34.65, 0.00, 0.00, 0.000, 0.000, 0.000, 14:02:26.348
139, 1.47, 41.87, 0.00, 0.00, 0.000, 0.000, 0.000, 14:02:26.363
140, -1.62, 33.37, 0.00, 0.00, 0.000, 0.000, 0.000, 14:02:26.363
141, -2.94, 30.83, 0.00, 0.00, 0.000, 0.000, 0.000, 14:02:26.378
142, 1.44, 42.29, 0.00, 0.00, 0.000, 0.000, 0.000, 14:02:26.378
143, 2.82, 41.64, 0.00, 0.00, 0.000, 0.000, 0.000, 14:02:26.378
144, -5.47, 35.41, 0.00, 0.00, 0.000, 0.000, 0.000, 14:02:26.378
145, -5.79, 28.27, 0.00, 0.00, 0.000, 0.000, 0.000, 14:02:26.399
146, -1.03, 35.22, 0.00, 0.00, 0.000, 0.000, 0.000, 14:02:26.399
147, 2.21, 36.57, 0.00, 0.00, 0.000, 0.000, 0.000, 14:02:26.407
148, -4.02, 30.33, 0.00, 0.00, 0.000, 0.000, 0.000, 14:02:26.407
149, -5.41, 26.92, 0.00, 0.00, 0.000, 0.000, 0.000, 14:02:26.408
150, -0.42, 39.53, 0.00, 0.00, 0.000, 0.000, 0.000, 14:02:26.408
151, 2.58, 39.97, 0.00, 0.00, 0.000, 0.000, 0.000, 14:02:26.422
152, -5.99, 34.50, 0.00, 0.00, 0.000, 0.000, 0.000, 14:02:26.422
153, -8.04, 30.66, 0.00, 0.00, 0.000, 0.000, 0.000, 14:02:26.437
154, -4.68, 35.27, 0.00, 0.00, 0.000, 0.000, 0.000, 14:02:26.437
155, -3.16, 42.44, 0.00, 0.00, 0.000, 0.000, 0.000, 14:02:26.437
156, -4.41, 33.94, 0.00, 0.00, 0.000, 0.000, 0.000, 14:02:26.437
157, -11.22, 28.74, 0.00, 0.00, 0.000, 0.000, 0.000, 14:02:26.452
158, -2.43, 36.80, 0.00, 0.00, 0.000, 0.000, 0.000, 14:02:26.452
159, -1.34, 41.19, 0.00, 0.00, 0.000, 0.000, 0.000, 14:02:26.467
160, -9.02, 32.27, 0.00, 0.00, 0.000, 0.000, 0.000, 14:02:26.467
161, -3.89, 30.19, 0.00, 0.00, 0.000, 0.000, 0.000, 14:02:26.468
162, -0.48, 37.36, 0.00, 0.00, 0.000, 0.000, 0.000, 14:02:26.468
163, -0.99, 39.28, 0.00, 0.00, 0.000, 0.000, 0.000, 14:02:26.482
164, -4.36, 35.75, 0.00, 0.00, 0.000, 0.000, 0.000, 14:02:26.482
165, -6.38, 30.27, 0.00, 0.00, 0.000, 0.000, 0.000, 14:02:26.497
166, -3.29, 37.69, 0.00, 0.00, 0.000, 0.000, 0.000, 14:02:26.497
167, -1.16, 41.43, 0.00, 0.00, 0.000, 0.000, 0.000, 14:02:26.497
168, -4.89, 37.75, 0.00, 0.00, 0.000, 0.000, 0.000, 14:02:26.497
169, -10.44, 28.94, 0.00, 0.00, 0.000, 0.000, 0.000, 14:02:26.512
170, -5.48, 37.84, 0.00, 0.00, 0.000, 0.000, 0.000, 14:02:26.512
171, -3.00, 46.81, 0.00, 0.00, 0.000, 0.000, 0.000, 14:02:26.526
172, -3.61, 35.05, 0.00, 0.00, 0.000, 0.000, 0.000, 14:02:26.527
173, -8.83, 28.42, 0.00, 0.00, 0.000, 0.000, 0.000, 14:02:26.527
174, -8.42, 35.83, 0.00, 0.00, 0.000, 0.000, 0.000, 14:02:26.527
175, -4.97, 38.82, 0.00, 0.00, 0.000, 0.000, 0.000, 14:02:26.542
176, -7.11, 33.42, 0.00, 0.00, 0.000, 0.000, 0.000, 14:02:26.542
177, -6.63, 25.81, 0.00, 0.00, 0.000, 0.000, 0.000, 14:02:26.557
178, -6.63, 34.64, 0.00, 0.00, 0.000, 0.000, 0.000, 14:02:26.557
179, -6.37, 39.47, 0.00, 0.00, 0.000, 0.000, 0.000, 14:02:26.558
180, -7.92, 32.21, 0.00, 0.00, 0.000, 0.000, 0.000, 14:02:26.558
181, -11.40, 28.85, 0.00, 0.00, 0.000, 0.000, 0.000, 14:02:26.572
182, -8.43, 34.80, 0.00, 0.00, 0.000, 0.000, 0.000, 14:02:26.572
183, -4.80, 38.85, 0.00, 0.00, 0.000, 0.000, 0.000, 14:02:26.602
184, -6.87, 32.95, 0.00, 0.00, 0.000, 0.000, 0.000, 14:02:26.602
185, -11.95, 29.41, 0.00, 0.00, 0.000, 0.000, 0.000, 14:02:26.603
186, -6.68, 34.65, 0.00, 0.00, 0.000, 0.000, 0.000, 14:02:26.603
187, -6.96, 36.81, 0.00, 0.00, 0.000, 0.000, 0.000, 14:02:26.603
188, -8.42, 28.21, 0.00, 0.00, 0.000, 0.000, 0.000, 14:02:26.603
189, -9.13, 26.38, 0.00, 0.00, 0.000, 0.000, 0.000, 14:02:26.604
190, -7.31, 33.29, 0.00, 0.00, 0.000, 0.000, 0.000, 14:02:26.604
191, -6.63, 35.34, 0.00, 0.00, 0.000, 0.000, 0.000, 14:02:26.617
192, -8.63, 27.22, 0.00, 0.00, 0.000, 0.000, 0.000, 14:02:26.617
193, -5.99, 26.41, 0.00, 0.00, 0.000, 0.000, 0.000, 14:02:26.632
194, -5.01, 35.65, 0.00, 0.00, 0.000, 0.000, 0.000, 14:02:26.633
195, -4.82, 39.59, 0.00, 0.00, 0.000, 0.000, 0.000, 14:02:26.648
196, -7.50, 29.91, 0.00, 0.00, 0.000, 0.000, 0.000, 14:02:26.648
197, -12.45, 27.10, 0.00, 0.00, 0.000, 0.000, 0.000, 14:02:26.648
198, -6.48, 35.08, 0.00, 0.00, 0.000, 0.000, 0.000, 14:02:26.648
199, -5.84, 39.35, 0.00, 0.00, 0.000, 0.000, 0.000, 14:02:26.662
200, -7.07, 31.52, 0.00, 0.00, 0.000, 0.000, 0.000, 14:02:26.663
0, -10.82, 27.90, 0.00, 0.00, 0.000, 0.000, 0.000, 14:02:26.663
1, -3.48, 39.53, 0.00, 0.00, 0.000, 0.000, 0.000, 14:02:26.678
2, -2.59, 41.92, 0.00, 0.00, 0.000, 0.000, 0.000, 14:02:26.678
3, -5.12, 33.88, 0.00, 0.00, 0.000, 0.000, 0.000, 14:02:26.691
4, -9.80, 29.35, 0.00, 0.00, 0.000, 0.000, 0.000, 14:02:26.691
5, -4.91, 37.14, 0.00, 0.00, 0.000, 0.000, 0.000, 14:02:26.692
6, -4.65, 42.18, 0.00, 0.00, 0.000, 0.000, 0.000, 14:02:26.692
7, -8.96, 33.22, 0.00, 0.00, 0.000, 0.000, 0.000, 14:02:26.707
8, -11.30, 30.27, 0.00, 0.00, 0.000, 0.000, 0.000, 14:02:26.707
9, -6.02, 36.46, 0.00, 0.00, 0.000, 0.000, 0.000, 14:02:26.722
10, -8.96, 39.95, 0.00, 0.00, 0.000, 0.000, 0.000, 14:02:26.722
11, -8.26, 36.55, 0.00, 0.00, 0.000, 0.000, 0.000, 14:02:26.723
12, -10.29, 28.93, 0.00, 0.00, 0.000, 0.000, 0.000, 14:02:26.723
13, -6.84, 41.48, 0.00, 0.00, 0.000, 0.000, 0.000, 14:02:26.737
14, -7.41, 41.89, 0.00, 0.00, 0.000, 0.000, 0.000, 14:02:26.737
15, -9.42, 33.10, 0.00, 0.00, 0.000, 0.000, 0.000, 14:02:26.752
16, -11.28, 28.31, 0.00, 0.00, 0.000, 0.000, 0.000, 14:02:26.752
17, -9.26, 38.22, 0.00, 0.00, 0.000, 0.000, 0.000, 14:02:26.753
18, -5.30, 40.34, 0.00, 0.00, 0.000, 0.000, 0.000, 14:02:26.753
19, -11.00, 31.09, 0.00, 0.00, 0.000, 0.000, 0.000, 14:02:26.767
20, -14.80, 32.83, 0.00, 0.00, 0.000, 0.000, 0.000, 14:02:26.767
21, -4.98, 36.30, 0.00, 0.00, 0.000, 0.000, 0.000, 14:02:26.782
22, -7.79, 42.46, 0.00, 0.00, 0.000, 0.000, 0.000, 14:02:26.782
23, -11.91, 33.40, 0.00, 0.00, 0.000, 0.000, 0.000, 14:02:26.782
24, -10.09, 33.05, 0.00, 0.00, 0.000, 0.000, 0.000, 14:02:26.782
25, -3.57, 39.63, 0.00, 0.00, 0.000, 0.000, 0.000, 14:02:26.804
26, -4.46, 43.23, 0.00, 0.00, 0.000, 0.000, 0.000, 14:02:26.804
27, -8.50, 36.55, 0.00, 0.00, 0.000, 0.000, 0.000, 14:02:26.812
28, -13.43, 30.93, 0.00, 0.00, 0.000, 0.000, 0.000, 14:02:26.812
29, -8.21, 41.31, 0.00, 0.00, 0.000, 0.000, 0.000, 14:02:26.812
30, -7.93, 42.16, 0.00, 0.00, 0.000, 0.000, 0.000, 14:02:26.812
31, -9.56, 33.66, 0.00, 0.00, 0.000, 0.000, 0.000, 14:02:26.827
32, -12.20, 30.48, 0.00, 0.00, 0.000, 0.000, 0.000, 14:02:26.827
33, -7.87, 40.07, 0.00, 0.00, 0.000, 0.000, 0.000, 14:02:26.842
34, -3.65, 41.66, 0.00, 0.00, 0.000, 0.000, 0.000, 14:02:26.842
35, -8.27, 35.64, 0.00, 0.00, 0.000, 0.000, 0.000, 14:02:26.842
36, -7.78, 31.83, 0.00, 0.00, 0.000, 0.000, 0.000, 14:02:26.842
37, -2.57, 39.13, 0.00, 0.00, 0.000, 0.000, 0.000, 14:02:26.857
38, -1.91, 46.49, 0.00, 0.00, 0.000, 0.000, 0.000, 14:02:26.857
39, -5.12, 36.10, 0.00, 0.00, 0.000, 0.000, 0.000, 14:02:26.871
40, -13.74, 36.25, 0.00, 0.00, 0.000, 0.000, 0.000, 14:02:26.871
41, -7.35, 40.78, 0.00, 0.00, 0.000, 0.000, 0.000, 14:02:26.873
42, -4.48, 40.41, 0.00, 0.00, 0.000, 0.000, 0.000, 14:02:26.874
43, -9.11, 36.39, 0.00, 0.00, 0.000, 0.000, 0.000, 14:02:26.887
44, -9.23, 34.17, 0.00, 0.00, 0.000, 0.000, 0.000, 14:02:26.887
45, -2.49, 40.07, 0.00, 0.00, 0.000, 0.000, 0.000, 14:02:26.902
46, -2.73, 45.06, 0.00, 0.00, 0.000, 0.000, 0.000, 14:02:26.902
47, -0.53, 38.95, 0.00, 0.00, 0.000, 0.000, 0.000, 14:02:26.902
48, -4.97, 34.67, 0.00, 0.00, 0.000, 0.000, 0.000, 14:02:26.902
49, -2.78, 40.64, 0.00, 0.00, 0.000, 0.000, 0.000, 14:02:26.917
50, -4.33, 43.00, 0.00, 0.00, 0.000, 0.000, 0.000, 14:02:26.917
51, -8.77, 37.85, 0.00, 0.00, 0.000, 0.000, 0.000, 14:02:26.933
52, -5.53, 31.72, 0.00, 0.00, 0.000, 0.000, 0.000, 14:02:26.933
53, -3.79, 37.66, 0.00, 0.00, 0.000, 0.000, 0.000, 14:02:26.933
54, -3.81, 39.77, 0.00, 0.00, 0.000, 0.000, 0.000, 14:02:26.933
55, -4.48, 35.45, 0.00, 0.00, 0.000, 0.000, 0.000, 14:02:26.947
56, -9.45, 31.13, 0.00, 0.00, 0.000, 0.000, 0.000, 14:02:26.947
57, -5.49, 39.21, 0.00, 0.00, 0.000, 0.000, 0.000, 14:02:26.962
58, -6.82, 43.18, 0.00, 0.00, 0.000, 0.000, 0.000, 14:02:26.962
59, -9.36, 35.51, 0.00, 0.00, 0.000, 0.000, 0.000, 14:02:26.962
60, -10.23, 32.35, 0.00, 0.00, 0.000, 0.000, 0.000, 14:02:26.962
61, -4.21, 43.23, 0.00, 0.00, 0.000, 0.000, 0.000, 14:02:26.978
62, -5.67, 42.81, 0.00, 0.00, 0.000, 0.000, 0.000, 14:02:26.978
63, -11.55, 35.24, 0.00, 0.00, 0.000, 0.000, 0.000, 14:02:26.992
64, -12.12, 30.68, 0.00, 0.00, 0.000, 0.000, 0.000, 14:02:26.992
65, -7.06, 35.86, 0.00, 0.00, 0.000, 0.000, 0.000, 14:02:26.992
66, -4.93, 41.38, 0.00, 0.00, 0.000, 0.000, 0.000, 14:02:26.992
67, -5.65, 35.20, 0.00, 0.00, 0.000, 0.000, 0.000, 14:02:27.007
68, -10.47, 34.18, 0.00, 0.00, 0.000, 0.000, 0.000, 14:02:27.007
69, -3.92, 40.26, 0.00, 0.00, 0.000, 0.000, 0.000, 14:02:27.022
70, -4.16, 42.94, 0.00, 0.00, 0.000, 0.000, 0.000, 14:02:27.022
71, -7.42, 38.40, 0.00, 0.00, 0.000, 0.000, 0.000, 14:02:27.023
72, -9.76, 33.79, 0.00, 0.00, 0.000, 0.000, 0.000, 14:02:27.023
73, -3.42, 38.80, 0.00, 0.00, 0.000, 0.000, 0.000, 14:02:27.037
74, -1.62, 43.78, 0.00, 0.00, 0.000, 0.000, 0.000, 14:02:27.038
75, -7.65, 38.75, 0.00, 0.00, 0.000, 0.000, 0.000, 14:02:27.053
76, -11.28, 35.19, 0.00, 0.00, 0.000, 0.000, 0.000, 14:02:27.053
77, -4.18, 39.71, 0.00, 0.00, 0.000, 0.000, 0.000, 14:02:27.053
78, -2.72, 41.30, 0.00, 0.00, 0.000, 0.000, 0.000, 14:02:27.053
79, -6.88, 35.30, 0.00, 0.00, 0.000, 0.000, 0.000, 14:02:27.069
80, -5.01, 31.01, 0.00, 0.00, 0.000, 0.000, 0.000, 14:02:27.069
81, -5.82, 38.58, 0.00, 0.00, 0.000, 0.000, 0.000, 14:02:27.082
82, -1.86, 43.55, 0.00, 0.00, 0.000, 0.000, 0.000, 14:02:27.082
83, -4.63, 35.80, 0.00, 0.00, 0.000, 0.000, 0.000, 14:02:27.082
84, -7.06, 31.10, 0.00, 0.00, 0.000, 0.000, 0.000, 14:02:27.082
85, -2.16, 37.87, 0.00, 0.00, 0.000, 0.000, 0.000, 14:02:27.097
86, -0.43, 43.87, 0.00, 0.00, 0.000, 0.000, 0.000, 14:02:27.098
87, -2.98, 39.36, 0.00, 0.00, 0.000, 0.000, 0.000, 14:02:27.112
88, -5.82, 35.83, 0.00, 0.00, 0.000, 0.000, 0.000, 14:02:27.113
89, -2.29, 39.27, 0.00, 0.00, 0.000, 0.000, 0.000, 14:02:27.113
90, 2.21, 40.31, 0.00, 0.00, 0.000, 0.000, 0.000, 14:02:27.113
91, -2.00, 34.41, 0.00, 0.00, 0.000, 0.000, 0.000, 14:02:27.126
92, -8.76, 32.99, 0.00, 0.00, 0.000, 0.000, 0.000, 14:02:27.127
93, -3.93, 38.61, 0.00, 0.00, 0.000, 0.000, 0.000, 14:02:27.143
94, -2.81, 43.56, 0.00, 0.00, 0.000, 0.000, 0.000, 14:02:27.143
95, -3.95, 36.35, 0.00, 0.00, 0.000, 0.000, 0.000, 14:02:27.157
96, -8.80, 30.59, 0.00, 0.00, 0.000, 0.000, 0.000, 14:02:27.157
97, -5.83, 37.44, 0.00, 0.00, 0.000, 0.000, 0.000, 14:02:27.157
98, -0.95, 41.26, 0.00, 0.00, 0.000, 0.000, 0.000, 14:02:27.157
99, -3.71, 34.44, 0.00, 0.00, 0.000, 0.000, 0.000, 14:02:27.172
100, -5.97, 29.19, 0.00, 0.00, 0.000, 0.000, 0.000, 14:02:27.172
101, -2.47, 34.35, 0.00, 0.00, 0.000, 0.000, 0.000, 14:02:27.172
102, 0.60, 36.10, 0.00, 0.00, 0.000, 0.000, 0.000, 14:02:27.172
103, -6.57, 32.89, 0.00, 0.00, 0.000, 0.000, 0.000, 14:02:27.187
104, -7.05, 25.69, 0.00, 0.00, 0.000, 0.000, 0.000, 14:02:27.187
105, -5.17, 37.87, 0.00, 0.00, 0.000, 0.000, 0.000, 14:02:27.202
106, 2.79, 37.46, 0.00, 0.00, 0.000, 0.000, 0.000, 14:02:27.202
107, -5.35, 35.47, 0.00, 0.00, 0.000, 0.000, 0.000, 14:02:27.203
108, -8.10, 29.43, 0.00, 0.00, 0.000, 0.000, 0.000, 14:02:27.203
109, -5.36, 37.02, 0.00, 0.00, 0.000, 0.000, 0.000, 14:02:27.217
110, -3.77, 43.39, 0.00, 0.00, 0.000, 0.000, 0.000, 14:02:27.218
111, -5.37, 33.68, 0.00, 0.00, 0.000, 0.000, 0.000, 14:02:27.233
112, -8.10, 27.85, 0.00, 0.00, 0.000, 0.000, 0.000, 14:02:27.233
113, -5.65, 36.02, 0.00, 0.00, 0.000, 0.000, 0.000, 14:02:27.233
114, -4.26, 36.90, 0.00, 0.00, 0.000, 0.000, 0.000, 14:02:27.233
115, -7.75, 31.29, 0.00, 0.00, 0.000, 0.000, 0.000, 14:02:27.247
116, -7.54, 30.00, 0.00, 0.00, 0.000, 0.000, 0.000, 14:02:27.247
117, -5.57, 38.78, 0.00, 0.00, 0.000, 0.000, 0.000, 14:02:27.262
118, -2.63, 41.32, 0.00, 0.00, 0.000, 0.000, 0.000, 14:02:27.262
119, -4.63, 34.86, 0.00, 0.00, 0.000, 0.000, 0.000, 14:02:27.263
120, -6.82, 30.29, 0.00, 0.00, 0.000, 0.000, 0.000, 14:02:27.263
121, -3.47, 36.81, 0.00, 0.00, 0.000, 0.000, 0.000, 14:02:27.277
122, -3.39, 43.24, 0.00, 0.00, 0.000, 0.000, 0.000, 14:02:27.277
123, -10.95, 35.72, 0.00, 0.00, 0.000, 0.000, 0.000, 14:02:27.292
124, -7.90, 28.20, 0.00, 0.00, 0.000, 0.000, 0.000, 14:02:27.292
125, -3.55, 37.72, 0.00, 0.00, 0.000, 0.000, 0.000, 14:02:27.292
126, -1.75, 42.47, 0.00, 0.00, 0.000, 0.000, 0.000, 14:02:27.293
127, -5.05, 37.46, 0.00, 0.00, 0.000, 0.000, 0.000, 14:02:27.314
128, -10.67, 29.97, 0.00, 0.00, 0.000, 0.000, 0.000, 14:02:27.314
129, -3.15, 39.98, 0.00, 0.00, 0.000, 0.000, 0.000, 14:02:27.323
130, -3.10, 39.48, 0.00, 0.00, 0.000, 0.000, 0.000, 14:02:27.323
131, -7.72, 31.66, 0.00, 0.00, 0.000, 0.000, 0.000, 14:02:27.324
132, -7.80, 27.39, 0.00, 0.00, 0.000, 0.000, 0.000, 14:02:27.324
133, -3.58, 35.03, 0.00, 0.00, 0.000, 0.000, 0.000, 14:02:27.337
134, -3.32, 38.89, 0.00, 0.00, 0.000, 0.000, 0.000, 14:02:27.337
135, -5.51, 35.33, 0.00, 0.00, 0.000, 0.000, 0.000, 14:02:27.352
136, -3.58, 29.69, 0.00, 0.00, 0.000, 0.000, 0.000, 14:02:27.352
137, -6.35, 36.59, 0.00, 0.00, 0.000, 0.000, 0.000, 14:02:27.352
138, 0.43, 40.06, 0.00, 0.00, 0.000, 0.000, 0.000, 14:02:27.352
139, 0.06, 36.17, 0.00, 0.00, 0.000, 0.000, 0.000, 14:02:27.368
140, -4.31, 32.44, 0.00, 0.00, 0.000, 0.000, 0.000, 14:02:27.368
141, -0.88, 38.03, 0.00, 0.00, 0.000, 0.000, 0.000, 14:02:27.382
142, -0.01, 43.41, 0.00, 0.00, 0.000, 0.000, 0.000, 14:02:27.382
143, -5.09, 32.58, 0.00, 0.00, 0.000, 0.000, 0.000, 14:02:27.383
144, -5.84, 26.93, 0.00, 0.00, 0.000, 0.000, 0.000, 14:02:27.383
145, -3.29, 36.37, 0.00, 0.00, 0.000, 0.000, 0.000, 14:02:27.397
146, 1.71, 40.01, 0.00, 0.00, 0.000, 0.000, 0.000, 14:02:27.397
147, -4.08, 30.30, 0.00, 0.00, 0.000, 0.000, 0.000, 14:02:27.412
148, -4.63, 27.49, 0.00, 0.00, 0.000, 0.000, 0.000, 14:02:27.412
149, -2.68, 36.29, 0.00, 0.00, 0.000, 0.000, 0.000, 14:02:27.412
150, 0.79, 42.30, 0.00, 0.00, 0.000, 0.000, 0.000, 14:02:27.412
151, -4.78, 38.15, 0.00, 0.00, 0.000, 0.000, 0.000, 14:02:27.427
152, -7.27, 31.99, 0.00, 0.00, 0.000, 0.000, 0.000, 14:02:27.427
153, -2.36, 38.67, 0.00, 0.00, 0.000, 0.000, 0.000, 14:02:27.442
154, -1.02, 42.26, 0.00, 0.00, 0.000, 0.000, 0.000, 14:02:27.442
155, -6.02, 39.33, 0.00, 0.00, 0.000, 0.000, 0.000, 14:02:27.442
156, -7.89, 34.64, 0.00, 0.00, 0.000, 0.000, 0.000, 14:02:27.442
157, -4.21, 38.56, 0.00, 0.00, 0.000, 0.000, 0.000, 14:02:27.457
158, -2.11, 40.98, 0.00, 0.00, 0.000, 0.000, 0.000, 14:02:27.457
159, -6.33, 34.63, 0.00, 0.00, 0.000, 0.000, 0.000, 14:02:27.472
160, -11.60, 27.99, 0.00, 0.00, 0.000, 0.000, 0.000, 14:02:27.472
161, -6.14, 36.58, 0.00, 0.00, 0.000, 0.000, 0.000, 14:02:27.473
162, -4.35, 38.34, 0.00, 0.00, 0.000, 0.000, 0.000, 14:02:27.473
163, -4.44, 37.06, 0.00, 0.00, 0.000, 0.000, 0.000, 14:02:27.488
164, -6.03, 32.17, 0.00, 0.00, 0.000, 0.000, 0.000, 14:02:27.488
165, -4.88, 37.97, 0.00, 0.00, 0.000, 0.000, 0.000, 14:02:27.503
166, -3.61, 40.79, 0.00, 0.00, 0.000, 0.000, 0.000, 14:02:27.503
167, -6.13, 33.52, 0.00, 0.00, 0.000, 0.000, 0.000, 14:02:27.503
168, -9.48, 25.07, 0.00, 0.00, 0.000, 0.000, 0.000, 14:02:27.503
169, -2.65, 36.97, 0.00, 0.00, 0.000, 0.000, 0.000, 14:02:27.517
170, -1.45, 40.59, 0.00, 0.00, 0.000, 0.000, 0.000, 14:02:27.517
171, -3.69, 31.26, 0.00, 0.00, 0.000, 0.000, 0.000, 14:02:27.533
172, -6.72, 27.72, 0.00, 0.00, 0.000, 0.000, 0.000, 14:02:27.533
173, -1.98, 36.22, 0.00, 0.00, 0.000, 0.000, 0.000, 14:02:27.533
174, -4.37, 39.65, 0.00, 0.00, 0.000, 0.000, 0.000, 14:02:27.533
175, -4.86, 33.46, 0.00, 0.00, 0.000, 0.000, 0.000, 14:02:27.547
176, -7.18, 28.07, 0.00, 0.00, 0.000, 0.000, 0.000, 14:02:27.547
177, -3.98, 39.20, 0.00, 0.00, 0.000, 0.000, 0.000, 14:02:27.562
178, -5.06, 38.00, 0.00, 0.00, 0.000, 0.000, 0.000, 14:02:27.562
179, -8.10, 31.54, 0.00, 0.00, 0.000, 0.000, 0.000, 14:02:27.562
180, -10.71, 25.60, 0.00, 0.00, 0.000, 0.000, 0.000, 14:02:27.562
181, -9.89, 32.50, 0.00, 0.00, 0.000, 0.000, 0.000, 14:02:27.577
182, -8.07, 35.93, 0.00, 0.00, 0.000, 0.000, 0.000, 14:02:27.577
183, -7.04, 33.25, 0.00, 0.00, 0.000, 0.000, 0.000, 14:02:27.592
184, -8.22, 28.60, 0.00, 0.00, 0.000, 0.000, 0.000, 14:02:27.592
185, -6.92, 35.59, 0.00, 0.00, 0.000, 0.000, 0.000, 14:02:27.592
186, -4.33, 39.44, 0.00, 0.00, 0.000, 0.000, 0.000, 14:02:27.593
187, -7.64, 32.30, 0.00, 0.00, 0.000, 0.000, 0.000, 14:02:27.608
188, -11.25, 28.30, 0.00, 0.00, 0.000, 0.000, 0.000, 14:02:27.608
189, -6.13, 36.22, 0.00, 0.00, 0.000, 0.000, 0.000, 14:02:27.622
190, -5.42, 38.23, 0.00, 0.00, 0.000, 0.000, 0.000, 14:02:27.622
191, -7.93, 27.49, 0.00, 0.00, 0.000, 0.000, 0.000, 14:02:27.623
192, -8.11, 22.63, 0.00, 0.00, 0.000, 0.000, 0.000, 14:02:27.623
193, -8.01, 32.48, 0.00, 0.00, 0.000, 0.000, 0.000, 14:02:27.637
194, -6.38, 39.08, 0.00, 0.00, 0.000, 0.000, 0.000, 14:02:27.637
195, -7.45, 28.65, 0.00, 0.00, 0.000, 0.000, 0.000, 14:02:27.652
196, -10.97, 25.78, 0.00, 0.00, 0.000, 0.000, 0.000, 14:02:27.652
197, -5.93, 36.91, 0.00, 0.00, 0.000, 0.000, 0.000, 14:02:27.652
198, -2.62, 38.46, 0.00, 0.00, 0.000, 0.000, 0.000, 14:02:27.652
199, -4.47, 31.19, 0.00, 0.00, 0.000, 0.000, 0.000, 14:02:27.667
200, -11.62, 27.21, 0.00, 0.00, 0.000, 0.000, 0.000, 14:02:27.667
0, -4.85, 35.63, 0.00, 0.00, 0.000, 0.000, 0.000, 14:02:27.667
1, -4.09, 38.09, 0.00, 0.00, 0.000, 0.000, 0.000, 14:02:27.682
2, -9.37, 32.08, 0.00, 0.00, 0.000, 0.000, 0.000, 14:02:27.682
3, -10.08, 29.07, 0.00, 0.00, 0.000, 0.000, 0.000, 14:02:27.712
4, -4.76, 34.64, 0.00, 0.00, 0.000, 0.000, 0.000, 14:02:27.712
5, -7.75, 40.27, 0.00, 0.00, 0.000, 0.000, 0.000, 14:02:27.712
6, -7.73, 37.63, 0.00, 0.00, 0.000, 0.000, 0.000, 14:02:27.712
7, -9.58, 31.17, 0.00, 0.00, 0.000, 0.000, 0.000, 14:02:27.712
8, -9.37, 37.88, 0.00, 0.00, 0.000, 0.000, 0.000, 14:02:27.713
9, -5.87, 40.52, 0.00, 0.00, 0.000, 0.000, 0.000, 14:02:27.714
10, -7.63, 34.84, 0.00, 0.00, 0.000, 0.000, 0.000, 14:02:27.714
11, -8.31, 28.27, 0.00, 0.00, 0.000, 0.000, 0.000, 14:02:27.727
12, -6.02, 37.15, 0.00, 0.00, 0.000, 0.000, 0.000, 14:02:27.727
13, -4.01, 42.95, 0.00, 0.00, 0.000, 0.000, 0.000, 14:02:27.742
14, -3.87, 35.71, 0.00, 0.00, 0.000, 0.000, 0.000, 14:02:27.743
15, -6.08, 26.74, 0.00, 0.00, 0.000, 0.000, 0.000, 14:02:27.757
16, -2.06, 33.88, 0.00, 0.00, 0.000, 0.000, 0.000, 14:02:27.757
17, -1.53, 39.40, 0.00, 0.00, 0.000, 0.000, 0.000, 14:02:27.757
18, -5.58, 28.25, 0.00, 0.00, 0.000, 0.000, 0.000, 14:02:27.758
19, -6.68, 30.62, 0.00, 0.00, 0.000, 0.000, 0.000, 14:02:27.780
