%OpenBCI Raw EEG Data
%
%Sample Rate = 200.0 Hz
%First Column = SampleIndex
%Last Column = Timestamp 
%Other Columns = EEG data in microvolts followed by Accel Data (in G) interleaved with Aux Data
0, 18.64, -20.19, 0.00, 0.00, 0.000, 0.000, 0.000, 14:24:39.952
1, 19.35, -17.10, 0.00, 0.00, 0.000, 0.000, 0.000, 14:24:39.967
2, 19.56, -17.11, 0.00, 0.00, 0.000, 0.000, 0.000, 14:24:39.967
3, 19.89, -17.87, 0.00, 0.00, 0.000, 0.000, 0.000, 14:24:39.982
4, 22.45, -16.29, 0.00, 0.00, 0.000, 0.000, 0.000, 14:24:39.982
5, 21.90, -10.74, 0.00, 0.00, 0.000, 0.000, 0.000, 14:24:39.982
6, 23.58, -15.57, 0.00, 0.00, 0.000, 0.000, 0.000, 14:24:39.982
7, 28.40, -21.55, 0.00, 0.00, 0.000, 0.000, 0.000, 14:24:39.997
8, 28.30, -18.80, 0.00, 0.00, 0.000, 0.000, 0.000, 14:24:39.998
9, 25.17, -14.62, 0.00, 0.00, 0.000, 0.000, 0.000, 14:24:40.013
10, 28.24, -15.37, 0.00, 0.00, 0.000, 0.000, 0.000, 14:24:40.013
11, 25.00, -17.01, 0.00, 0.00, 0.000, 0.000, 0.000, 14:24:40.013
12, 21.84, -12.87, 0.00, 0.00, 0.000, 0.000, 0.000, 14:24:40.013
13, 20.99, -11.08, 0.00, 0.00, 0.000, 0.000, 0.000, 14:24:40.027
14, 18.42, -9.47, 0.00, 0.00, 0.000, 0.000, 0.000, 14:24:40.027
15, 22.55, -15.74, 0.00, 0.00, 0.000, 0.000, 0.000, 14:24:40.057
16, 22.74, -14.09, 0.00, 0.00, 0.000, 0.000, 0.000, 14:24:40.057
17, 22.53, -10.43, 0.00, 0.00, 0.000, 0.000, 0.000, 14:24:40.057
18, 22.86, -11.70, 0.00, 0.00, 0.000, 0.000, 0.000, 14:24:40.057
19, 21.84, -15.78, 0.00, 0.00, 0.000, 0.000, 0.000, 14:24:40.058
20, 28.20, -14.37, 0.00, 0.00, 0.000, 0.000, 0.000, 14:24:40.058
21, 28.36, -14.28, 0.00, 0.00, 0.000, 0.000, 0.000, 14:24:40.059
22, 27.11, -17.17, 0.00, 0.00, 0.000, 0.000, 0.000, 14:24:40.059
23, 19.20, -11.43, 0.00, 0.00, 0.000, 0.000, 0.000, 14:24:40.072
24, 24.75, -7.42, 0.00, 0.00, 0.000, 0.000, 0.000, 14:24:40.072
25, 20.82, -10.11, 0.00, 0.00, 0.000, 0.000, 0.000, 14:24:40.086
26, 20.69, -10.55, 0.00, 0.00, 0.000, 0.000, 0.000, 14:24:40.087
27, 21.24, -9.35, 0.00, 0.00, 0.000, 0.000, 0.000, 14:24:40.102
28, 23.02, -10.42, 0.00, 0.00, 0.000, 0.000, 0.000, 14:24:40.102
29, 23.08, -8.60, 0.00, 0.00, 0.000, 0.000, 0.000, 14:24:40.102
30, 29.35, -16.88, 0.00, 0.00, 0.000, 0.000, 0.000, 14:24:40.102
31, 31.31, -17.83, 0.00, 0.00, 0.000, 0.000, 0.000, 14:24:40.124
32, 20.65, -11.59, 0.00, 0.00, 0.000, 0.000, 0.000, 14:24:40.124
33, 27.89, -7.41, 0.00, 0.00, 0.000, 0.000, 0.000, 14:24:40.132
34, 25.20, -11.13, 0.00, 0.00, 0.000, 0.000, 0.000, 14:24:40.132
35, 24.66, -11.16, 0.00, 0.00, 0.000, 0.000, 0.000, 14:24:40.132
36, 20.17, -10.15, 0.00, 0.00, 0.000, 0.000, 0.000, 14:24:40.132
37, 23.12, -8.75, 0.00, 0.00, 0.000, 0.000, 0.000, 14:24:40.147
38, 16.64, -7.39, 0.00, 0.00, 0.000, 0.000, 0.000, 14:24:40.147
39, 25.56, -11.28, 0.00, 0.00, 0.000, 0.000, 0.000, 14:24:40.162
40, 30.32, -12.18, 0.00, 0.00, 0.000, 0.000, 0.000, 14:24:40.162
41, 27.53, -7.04, 0.00, 0.00, 0.000, 0.000, 0.000, 14:24:40.162
42, 29.49, -10.15, 0.00, 0.00, 0.000, 0.000, 0.000, 14:24:40.162
43, 25.99, -9.98, 0.00, 0.00, 0.000, 0.000, 0.000, 14:24:40.178
44, 24.04, -4.73, 0.00, 0.00, 0.000, 0.000, 0.000, 14:24:40.178
45, 25.77, -7.11, 0.00, 0.00, 0.000, 0.000, 0.000, 14:24:40.192
46, 25.88, -9.26, 0.00, 0.00, 0.000, 0.000, 0.000, 14:24:40.192
47, 25.29, -13.34, 0.00, 0.00, 0.000, 0.000, 0.000, 14:24:40.193
48, 28.89, -11.29, 0.00, 0.00, 0.000, 0.000, 0.000, 14:24:40.193
49, 28.65, -5.69, 0.00, 0.00, 0.000, 0.000, 0.000, 14:24:40.207
50, 26.77, -7.86, 0.00, 0.00, 0.000, 0.000, 0.000, 14:24:40.207
51, 28.90, -11.76, 0.00, 0.00, 0.000, 0.000, 0.000, 14:24:40.221
52, 30.47, -7.84, 0.00, 0.00, 0.000, 0.000, 0.000, 14:24:40.221
53, 29.71, -3.69, 0.00, 0.00, 0.000, 0.000, 0.000, 14:24:40.222
54, 29.13, -8.79, 0.00, 0.00, 0.000, 0.000, 0.000, 14:24:40.222
55, 32.40, -10.45, 0.00, 0.00, 0.000, 0.000, 0.000, 14:24:40.237
56, 26.34, -3.64, 0.00, 0.00, 0.000, 0.000, 0.000, 14:24:40.237
57, 29.58, -6.89, 0.00, 0.00, 0.000, 0.000, 0.000, 14:24:40.252
58, 29.41, -7.13, 0.00, 0.00, 0.000, 0.000, 0.000, 14:24:40.252
59, 27.08, -10.51, 0.00, 0.00, 0.000, 0.000, 0.000, 14:24:40.252
60, 20.74, -6.04, 0.00, 0.00, 0.000, 0.000, 0.000, 14:24:40.252
61, 30.34, -8.55, 0.00, 0.00, 0.000, 0.000, 0.000, 14:24:40.267
62, 24.85, -11.36, 0.00, 0.00, 0.000, 0.000, 0.000, 14:24:40.267
63, 29.06, -10.45, 0.00, 0.00, 0.000, 0.000, 0.000, 14:24:40.282
64, 32.47, -4.63, 0.00, 0.00, 0.000, 0.000, 0.000, 14:24:40.282
65, 27.57, -4.36, 0.00, 0.00, 0.000, 0.000, 0.000, 14:24:40.282
66, 29.46, -6.74, 0.00, 0.00, 0.000, 0.000, 0.000, 14:24:40.282
67, 28.20, -11.08, 0.00, 0.00, 0.000, 0.000, 0.000, 14:24:40.297
68, 25.44, -6.15, 0.00, 0.00, 0.000, 0.000, 0.000, 14:24:40.297
69, 27.27, -4.73, 0.00, 0.00, 0.000, 0.000, 0.000, 14:24:40.312
70, 27.37, -6.92, 0.00, 0.00, 0.000, 0.000, 0.000, 14:24:40.312
71, 26.46, -6.90, 0.00, 0.00, 0.000, 0.000, 0.000, 14:24:40.313
72, 28.50, -6.06, 0.00, 0.00, 0.000, 0.000, 0.000, 14:24:40.313
73, 24.36, -3.74, 0.00, 0.00, 0.000, 0.000, 0.000, 14:24:40.327
74, 21.15, -2.52, 0.00, 0.00, 0.000, 0.000, 0.000, 14:24:40.327
75, 22.77, -4.10, 0.00, 0.00, 0.000, 0.000, 0.000, 14:24:40.342
76, 20.55, -3.24, 0.00, 0.00, 0.000, 0.000, 0.000, 14:24:40.342
77, 22.02, -4.39, 0.00, 0.00, 0.000, 0.000, 0.000, 14:24:40.342
78, 24.14, -4.44, 0.00, 0.00, 0.000, 0.000, 0.000, 14:24:40.342
79, 26.06, -9.33, 0.00, 0.00, 0.000, 0.000, 0.000, 14:24:40.357
80, 26.85, -7.13, 0.00, 0.00, 0.000, 0.000, 0.000, 14:24:40.358
81, 26.08, -4.70, 0.00, 0.00, 0.000, 0.000, 0.000, 14:24:40.373
82, 23.99, -3.06, 0.00, 0.00, 0.000, 0.000, 0.000, 14:24:40.373
83, 26.29, -6.21, 0.00, 0.00, 0.000, 0.000, 0.000, 14:24:40.373
84, 31.39, -4.53, 0.00, 0.00, 0.000, 0.000, 0.000, 14:24:40.373
85, 29.94, -6.96, 0.00, 0.00, 0.000, 0.000, 0.000, 14:24:40.387
86, 24.58, -7.92, 0.00, 0.00, 0.000, 0.000, 0.000, 14:24:40.387
87, 22.57, -10.61, 0.00, 0.00, 0.000, 0.000, 0.000, 14:24:40.402
88, 21.05, -7.92, 0.00, 0.00, 0.000, 0.000, 0.000, 14:24:40.402
89, 22.52, -3.14, 0.00, 0.00, 0.000, 0.000, 0.000, 14:24:40.402
90, 20.91, -9.99, 0.00, 0.00, 0.000, 0.000, 0.000, 14:24:40.402
91, 24.15, -8.23, 0.00, 0.00, 0.000, 0.000, 0.000, 14:24:40.418
92, 20.75, -5.16, 0.00, 0.00, 0.000, 0.000, 0.000, 14:24:40.418
93, 24.83, -4.18, 0.00, 0.00, 0.000, 0.000, 0.000, 14:24:40.432
94, 24.68, -7.10, 0.00, 0.00, 0.000, 0.000, 0.000, 14:24:40.432
95, 24.26, -5.90, 0.00, 0.00, 0.000, 0.000, 0.000, 14:24:40.432
96, 24.16, -6.69, 0.00, 0.00, 0.000, 0.000, 0.000, 14:24:40.432
97, 26.46, -2.84, 0.00, 0.00, 0.000, 0.000, 0.000, 14:24:40.453
98, 29.77, -8.15, 0.00, 0.00, 0.000, 0.000, 0.000, 14:24:40.453
99, 31.11, -9.06, 0.00, 0.00, 0.000, 0.000, 0.000, 14:24:40.462
100, 29.86, -6.61, 0.00, 0.00, 0.000, 0.000, 0.000, 14:24:40.462
101, 26.31, -6.24, 0.00, 0.00, 0.000, 0.000, 0.000, 14:24:40.462
102, 28.73, -8.02, 0.00, 0.00, 0.000, 0.000, 0.000, 14:24:40.462
103, 28.48, -9.88, 0.00, 0.00, 0.000, 0.000, 0.000, 14:24:40.477
104, 22.72, -3.96, 0.00, 0.00, 0.000, 0.000, 0.000, 14:24:40.477
105, 19.40, 1.66, 0.00, 0.00, 0.000, 0.000, 0.000, 14:24:40.493
106, 19.21, -5.33, 0.00, 0.00, 0.000, 0.000, 0.000, 14:24:40.493
107, 15.40, -7.81, 0.00, 0.00, 0.000, 0.000, 0.000, 14:24:40.494
108, 19.48, -9.92, 0.00, 0.00, 0.000, 0.000, 0.000, 14:24:40.494
109, 21.86, -5.65, 0.00, 0.00, 0.000, 0.000, 0.000, 14:24:40.507
110, 19.99, -4.24, 0.00, 0.00, 0.000, 0.000, 0.000, 14:24:40.508
111, 23.48, -12.56, 0.00, 0.00, 0.000, 0.000, 0.000, 14:24:40.521
112, 22.31, -8.19, 0.00, 0.00, 0.000, 0.000, 0.000, 14:24:40.521
113, 22.54, -6.51, 0.00, 0.00, 0.000, 0.000, 0.000, 14:24:40.523
114, 22.39, -11.30, 0.00, 0.00, 0.000, 0.000, 0.000, 14:24:40.523
115, 27.12, -10.80, 0.00, 0.00, 0.000, 0.000, 0.000, 14:24:40.537
116, 25.69, -11.00, 0.00, 0.00, 0.000, 0.000, 0.000, 14:24:40.537
117, 21.34, -3.55, 0.00, 0.00, 0.000, 0.000, 0.000, 14:24:40.552
118, 20.92, -6.45, 0.00, 0.00, 0.000, 0.000, 0.000, 14:24:40.552
119, 24.07, -9.75, 0.00, 0.00, 0.000, 0.000, 0.000, 14:24:40.552
120, 22.20, -6.19, 0.00, 0.00, 0.000, 0.000, 0.000, 14:24:40.552
121, 23.75, -6.03, 0.00, 0.00, 0.000, 0.000, 0.000, 14:24:40.568
122, 20.08, -8.56, 0.00, 0.00, 0.000, 0.000, 0.000, 14:24:40.568
123, 23.62, -13.43, 0.00, 0.00, 0.000, 0.000, 0.000, 14:24:40.582
124, 23.55, -11.74, 0.00, 0.00, 0.000, 0.000, 0.000, 14:24:40.582
125, 22.79, -8.71, 0.00, 0.00, 0.000, 0.000, 0.000, 14:24:40.582
126, 23.39, -11.60, 0.00, 0.00, 0.000, 0.000, 0.000, 14:24:40.583
127, 25.72, -11.20, 0.00, 0.00, 0.000, 0.000, 0.000, 14:24:40.597
128, 22.91, -10.24, 0.00, 0.00, 0.000, 0.000, 0.000, 14:24:40.597
129, 31.84, -9.48, 0.00, 0.00, 0.000, 0.000, 0.000, 14:24:40.612
130, 31.08, -13.56, 0.00, 0.00, 0.000, 0.000, 0.000, 14:24:40.612
131, 25.52, -9.32, 0.00, 0.00, 0.000, 0.000, 0.000, 14:24:40.612
132, 22.72, -3.97, 0.00, 0.00, 0.000, 0.000, 0.000, 14:24:40.612
133, 21.71, -4.14, 0.00, 0.00, 0.000, 0.000, 0.000, 14:24:40.628
134, 21.15, -4.02, 0.00, 0.00, 0.000, 0.000, 0.000, 14:24:40.628
135, 23.13, -10.91, 0.00, 0.00, 0.000, 0.000, 0.000, 14:24:40.643
136, 24.89, -8.26, 0.00, 0.00, 0.000, 0.000, 0.000, 14:24:40.643
137, 21.91, -8.83, 0.00, 0.00, 0.000, 0.000, 0.000, 14:24:40.643
138, 22.33, -7.90, 0.00, 0.00, 0.000, 0.000, 0.000, 14:24:40.643
139, 23.88, -8.38, 0.00, 0.00, 0.000, 0.000, 0.000, 14:24:40.657
140, 20.03, -4.91, 0.00, 0.00, 0.000, 0.000, 0.000, 14:24:40.657
141, 25.30, -7.70, 0.00, 0.00, 0.000, 0.000, 0.000, 14:24:40.671
142, 29.65, -11.81, 0.00, 0.00, 0.000, 0.000, 0.000, 14:24:40.672
143, 26.48, -15.81, 0.00, 0.00, 0.000, 0.000, 0.000, 14:24:40.673
144, 26.97, -11.49, 0.00, 0.00, 0.000, 0.000, 0.000, 14:24:40.673
145, 25.96, -10.48, 0.00, 0.00, 0.000, 0.000, 0.000, 14:24:40.686
146, 19.20, -10.40, 0.00, 0.00, 0.000, 0.000, 0.000, 14:24:40.686
147, 19.64, -8.80, 0.00, 0.00, 0.000, 0.000, 0.000, 14:24:40.702
148, 21.38, -7.47, 0.00, 0.00, 0.000, 0.000, 0.000, 14:24:40.702
149, 17.76, -2.81, 0.00, 0.00, 0.000, 0.000, 0.000, 14:24:40.702
150, 22.13, -8.42, 0.00, 0.00, 0.000, 0.000, 0.000, 14:24:40.702
151, 20.64, -11.57, 0.00, 0.00, 0.000, 0.000, 0.000, 14:24:40.716
152, 19.07, -5.28, 0.00, 0.00, 0.000, 0.000, 0.000, 14:24:40.716
153, 23.15, -3.37, 0.00, 0.00, 0.000, 0.000, 0.000, 14:24:40.732
154, 22.84, -8.04, 0.00, 0.00, 0.000, 0.000, 0.000, 14:24:40.732
155, 22.75, -14.29, 0.00, 0.00, 0.000, 0.000, 0.000, 14:24:40.739
156, 23.15, -7.55, 0.00, 0.00, 0.000, 0.000, 0.000, 14:24:40.739
157, 23.48, -8.14, 0.00, 0.00, 0.000, 0.000, 0.000, 14:24:40.747
158, 21.35, -9.27, 0.00, 0.00, 0.000, 0.000, 0.000, 14:24:40.747
159, 24.49, -13.30, 0.00, 0.00, 0.000, 0.000, 0.000, 14:24:40.763
160, 23.62, -11.88, 0.00, 0.00, 0.000, 0.000, 0.000, 14:24:40.763
161, 24.55, -12.27, 0.00, 0.00, 0.000, 0.000, 0.000, 14:24:40.764
162, 26.26, -10.75, 0.00, 0.00, 0.000, 0.000, 0.000, 14:24:40.764
163, 28.57, -15.66, 0.00, 0.00, 0.000, 0.000, 0.000, 14:24:40.777
164, 26.36, -10.85, 0.00, 0.00, 0.000, 0.000, 0.000, 14:24:40.777
165, 30.04, -9.71, 0.00, 0.00, 0.000, 0.000, 0.000, 14:24:40.792
166, 26.92, -11.29, 0.00, 0.00, 0.000, 0.000, 0.000, 14:24:40.792
167, 24.43, -9.69, 0.00, 0.00, 0.000, 0.000, 0.000, 14:24:40.792
168, 20.99, -7.56, 0.00, 0.00, 0.000, 0.000, 0.000, 14:24:40.793
169, 21.77, -4.18, 0.00, 0.00, 0.000, 0.000, 0.000, 14:24:40.807
170, 17.96, -7.29, 0.00, 0.00, 0.000, 0.000, 0.000, 14:24:40.807
171, 22.17, -10.16, 0.00, 0.00, 0.000, 0.000, 0.000, 14:24:40.822
172, 21.06, -6.17, 0.00, 0.00, 0.000, 0.000, 0.000, 14:24:40.822
173, 26.14, -8.17, 0.00, 0.00, 0.000, 0.000, 0.000, 14:24:40.822
174, 28.81, -12.39, 0.00, 0.00, 0.000, 0.000, 0.000, 14:24:40.822
175, 28.81, -17.49, 0.00, 0.00, 0.000, 0.000, 0.000, 14:24:40.837
176, 23.78, -10.58, 0.00, 0.00, 0.000, 0.000, 0.000, 14:24:40.838
177, 21.31, -6.66, 0.00, 0.00, 0.000, 0.000, 0.000, 14:24:40.851
178, 21.37, -7.74, 0.00, 0.00, 0.000, 0.000, 0.000, 14:24:40.852
179, 19.43, -10.36, 0.00, 0.00, 0.000, 0.000, 0.000, 14:24:40.852
180, 20.41, -11.09, 0.00, 0.00, 0.000, 0.000, 0.000, 14:24:40.852
181, 23.09, -9.33, 0.00, 0.00, 0.000, 0.000, 0.000, 14:24:40.867
182, 20.29, -8.30, 0.00, 0.00, 0.000, 0.000, 0.000, 14:24:40.867
183, 25.64, -9.67, 0.00, 0.00, 0.000, 0.000, 0.000, 14:24:40.884
184, 22.35, -8.88, 0.00, 0.00, 0.000, 0.000, 0.000, 14:24:40.884
185, 20.77, -8.56, 0.00, 0.00, 0.000, 0.000, 0.000, 14:24:40.884
186, 23.09, -10.24, 0.00, 0.00, 0.000, 0.000, 0.000, 14:24:40.884
187, 24.47, -14.30, 0.00, 0.00, 0.000, 0.000, 0.000, 14:24:40.897
188, 19.86, -12.17, 0.00, 0.00, 0.000, 0.000, 0.000, 14:24:40.897
189, 20.32, -10.62, 0.00, 0.00, 0.000, 0.000, 0.000, 14:24:40.912
190, 21.70, -12.28, 0.00, 0.00, 0.000, 0.000, 0.000, 14:24:40.912
191, 20.96, -15.57, 0.00, 0.00, 0.000, 0.000, 0.000, 14:24:40.912
192, 21.22, -11.87, 0.00, 0.00, 0.000, 0.000, 0.000, 14:24:40.912
193, 22.44, -12.16, 0.00, 0.00, 0.000, 0.000, 0.000, 14:24:40.927
194, 19.29, -13.27, 0.00, 0.00, 0.000, 0.000, 0.000, 14:24:40.927
195, 18.69, -12.41, 0.00, 0.00, 0.000, 0.000, 0.000, 14:24:40.942
196, 21.95, -12.08, 0.00, 0.00, 0.000, 0.000, 0.000, 14:24:40.942
197, 20.87, -8.35, 0.00, 0.00, 0.000, 0.000, 0.000, 14:24:40.943
198, 21.58, -10.50, 0.00, 0.00, 0.000, 0.000, 0.000, 14:24:40.943
199, 25.62, -12.30, 0.00, 0.00, 0.000, 0.000, 0.000, 14:24:40.957
200, 21.52, -6.74, 0.00, 0.00, 0.000, 0.000, 0.000, 14:24:40.957
0, 25.51, -7.87, 0.00, 0.00, 0.000, 0.000, 0.000, 14:24:40.957
1, 24.51, -9.53, 0.00, 0.00, 0.000, 0.000, 0.000, 14:24:40.972
2, 24.83, -11.04, 0.00, 0.00, 0.000, 0.000, 0.000, 14:24:40.972
3, 22.41, -8.10, 0.00, 0.00, 0.000, 0.000, 0.000, 14:24:40.986
4, 23.34, -7.93, 0.00, 0.00, 0.000, 0.000, 0.000, 14:24:40.986
5, 26.04, -8.06, 0.00, 0.00, 0.000, 0.000, 0.000, 14:24:40.987
6, 29.73, -13.22, 0.00, 0.00, 0.000, 0.000, 0.000, 14:24:40.987
7, 27.24, -8.48, 0.00, 0.00, 0.000, 0.000, 0.000, 14:24:41.002
8, 24.20, -8.14, 0.00, 0.00, 0.000, 0.000, 0.000, 14:24:41.002
9, 20.90, -6.66, 0.00, 0.00, 0.000, 0.000, 0.000, 14:24:41.017
10, 19.18, -10.71, 0.00, 0.00, 0.000, 0.000, 0.000, 14:24:41.017
11, 21.32, -7.89, 0.00, 0.00, 0.000, 0.000, 0.000, 14:24:41.017
12, 20.74, -5.06, 0.00, 0.00, 0.000, 0.000, 0.000, 14:24:41.017
13, 22.96, -10.24, 0.00, 0.00, 0.000, 0.000, 0.000, 14:24:41.032
14, 20.70, -9.04, 0.00, 0.00, 0.000, 0.000, 0.000, 14:24:41.032
15, 21.27, -8.55, 0.00, 0.00, 0.000, 0.000, 0.000, 14:24:41.047
16, 23.65, -9.90, 0.00, 0.00, 0.000, 0.000, 0.000, 14:24:41.047
17, 25.97, -12.44, 0.00, 0.00, 0.000, 0.000, 0.000, 14:24:41.048
18, 24.06, -15.52, 0.00, 0.00, 0.000, 0.000, 0.000, 14:24:41.048
19, 25.22, -10.82, 0.00, 0.00, 0.000, 0.000, 0.000, 14:24:41.063
20, 22.34, -4.30, 0.00, 0.00, 0.000, 0.000, 0.000, 14:24:41.063
21, 22.30, -9.86, 0.00, 0.00, 0.000, 0.000, 0.000, 14:24:41.076
22, 22.93, -12.42, 0.00, 0.00, 0.000, 0.000, 0.000, 14:24:41.076
23, 19.84, -9.75, 0.00, 0.00, 0.000, 0.000, 0.000, 14:24:41.077
24, 21.17, -7.21, 0.00, 0.00, 0.000, 0.000, 0.000, 14:24:41.077
25, 20.57, -8.41, 0.00, 0.00, 0.000, 0.000, 0.000, 14:24:41.093
26, 20.89, -8.54, 0.00, 0.00, 0.000, 0.000, 0.000, 14:24:41.093
27, 21.58, -8.37, 0.00, 0.00, 0.000, 0.000, 0.000, 14:24:41.107
28, 23.82, -4.65, 0.00, 0.00, 0.000, 0.000, 0.000, 14:24:41.107
29, 22.58, -8.66, 0.00, 0.00, 0.000, 0.000, 0.000, 14:24:41.114
30, 30.61, -11.95, 0.00, 0.00, 0.000, 0.000, 0.000, 14:24:41.114
31, 29.40, -12.22, 0.00, 0.00, 0.000, 0.000, 0.000, 14:24:41.122
32, 26.26, -7.38, 0.00, 0.00, 0.000, 0.000, 0.000, 14:24:41.122
33, 20.50, -7.28, 0.00, 0.00, 0.000, 0.000, 0.000, 14:24:41.151
34, 21.22, -6.22, 0.00, 0.00, 0.000, 0.000, 0.000, 14:24:41.152
35, 20.08, -6.60, 0.00, 0.00, 0.000, 0.000, 0.000, 14:24:41.152
36, 18.67, -9.57, 0.00, 0.00, 0.000, 0.000, 0.000, 14:24:41.152
37, 21.40, -8.32, 0.00, 0.00, 0.000, 0.000, 0.000, 14:24:41.152
38, 20.03, -8.67, 0.00, 0.00, 0.000, 0.000, 0.000, 14:24:41.152
39, 23.75, -12.57, 0.00, 0.00, 0.000, 0.000, 0.000, 14:24:41.153
40, 29.02, -10.26, 0.00, 0.00, 0.000, 0.000, 0.000, 14:24:41.154
41, 24.38, -11.47, 0.00, 0.00, 0.000, 0.000, 0.000, 14:24:41.167
42, 23.03, -12.12, 0.00, 0.00, 0.000, 0.000, 0.000, 14:24:41.167
43, 19.49, -7.47, 0.00, 0.00, 0.000, 0.000, 0.000, 14:24:41.197
44, 20.09, -6.03, 0.00, 0.00, 0.000, 0.000, 0.000, 14:24:41.197
45, 19.66, -6.96, 0.00, 0.00, 0.000, 0.000, 0.000, 14:24:41.197
46, 19.02, -10.44, 0.00, 0.00, 0.000, 0.000, 0.000, 14:24:41.197
47, 20.65, -7.74, 0.00, 0.00, 0.000, 0.000, 0.000, 14:24:41.198
48, 23.36, -6.26, 0.00, 0.00, 0.000, 0.000, 0.000, 14:24:41.198
49, 22.19, -8.04, 0.00, 0.00, 0.000, 0.000, 0.000, 14:24:41.213
50, 20.79, -9.20, 0.00, 0.00, 0.000, 0.000, 0.000, 14:24:41.213
51, 22.67, -6.98, 0.00, 0.00, 0.000, 0.000, 0.000, 14:24:41.227
52, 29.04, -8.79, 0.00, 0.00, 0.000, 0.000, 0.000, 14:24:41.227
53, 26.36, -12.15, 0.00, 0.00, 0.000, 0.000, 0.000, 14:24:41.228
54, 26.96, -15.19, 0.00, 0.00, 0.000, 0.000, 0.000, 14:24:41.228
55, 29.55, -10.68, 0.00, 0.00, 0.000, 0.000, 0.000, 14:24:41.242
56, 24.11, -2.94, 0.00, 0.00, 0.000, 0.000, 0.000, 14:24:41.242
57, 18.70, -5.93, 0.00, 0.00, 0.000, 0.000, 0.000, 14:24:41.257
58, 19.19, -11.84, 0.00, 0.00, 0.000, 0.000, 0.000, 14:24:41.257
59, 18.18, -3.68, 0.00, 0.00, 0.000, 0.000, 0.000, 14:24:41.257
60, 21.31, -3.41, 0.00, 0.00, 0.000, 0.000, 0.000, 14:24:41.257
61, 23.83, -5.03, 0.00, 0.00, 0.000, 0.000, 0.000, 14:24:41.273
62, 21.58, -6.82, 0.00, 0.00, 0.000, 0.000, 0.000, 14:24:41.273
63, 22.42, -7.74, 0.00, 0.00, 0.000, 0.000, 0.000, 14:24:41.287
64, 21.07, -8.18, 0.00, 0.00, 0.000, 0.000, 0.000, 14:24:41.287
65, 21.39, -10.30, 0.00, 0.00, 0.000, 0.000, 0.000, 14:24:41.287
66, 19.42, -12.70, 0.00, 0.00, 0.000, 0.000, 0.000, 14:24:41.287
67, 21.89, -10.78, 0.00, 0.00, 0.000, 0.000, 0.000, 14:24:41.302
68, 18.22, -7.40, 0.00, 0.00, 0.000, 0.000, 0.000, 14:24:41.302
69, 23.09, -8.94, 0.00, 0.00, 0.000, 0.000, 0.000, 14:24:41.317
70, 23.20, -12.03, 0.00, 0.00, 0.000, 0.000, 0.000, 14:24:41.317
71, 22.32, -9.22, 0.00, 0.00, 0.000, 0.000, 0.000, 14:24:41.317
72, 22.94, -8.61, 0.00, 0.00, 0.000, 0.000, 0.000, 14:24:41.317
73, 24.20, -16.33, 0.00, 0.00, 0.000, 0.000, 0.000, 14:24:41.332
74, 28.03, -15.38, 0.00, 0.00, 0.000, 0.000, 0.000, 14:24:41.332
75, 24.11, -13.89, 0.00, 0.00, 0.000, 0.000, 0.000, 14:24:41.347
76, 27.25, -12.01, 0.00, 0.00, 0.000, 0.000, 0.000, 14:24:41.347
77, 18.99, -10.54, 0.00, 0.00, 0.000, 0.000, 0.000, 14:24:41.347
78, 19.14, -10.27, 0.00, 0.00, 0.000, 0.000, 0.000, 14:24:41.347
79, 20.22, -10.16, 0.00, 0.00, 0.000, 0.000, 0.000, 14:24:41.361
80, 18.16, -7.97, 0.00, 0.00, 0.000, 0.000, 0.000, 14:24:41.362
81, 19.58, -9.38, 0.00, 0.00, 0.000, 0.000, 0.000, 14:24:41.377
82, 24.57, -11.73, 0.00, 0.00, 0.000, 0.000, 0.000, 14:24:41.377
83, 18.64, -8.83, 0.00, 0.00, 0.000, 0.000, 0.000, 14:24:41.378
84, 20.60, -7.80, 0.00, 0.00, 0.000, 0.000, 0.000, 14:24:41.378
85, 22.45, -12.25, 0.00, 0.00, 0.000, 0.000, 0.000, 14:24:41.392
86, 20.10, -10.32, 0.00, 0.00, 0.000, 0.000, 0.000, 14:24:41.392
87, 21.99, -9.76, 0.00, 0.00, 0.000, 0.000, 0.000, 14:24:41.407
88, 21.89, -9.87, 0.00, 0.00, 0.000, 0.000, 0.000, 14:24:41.407
89, 21.12, -10.92, 0.00, 0.00, 0.000, 0.000, 0.000, 14:24:41.407
90, 23.73, -11.03, 0.00, 0.00, 0.000, 0.000, 0.000, 14:24:41.407
91, 22.63, -8.15, 0.00, 0.00, 0.000, 0.000, 0.000, 14:24:41.422
92, 20.18, -6.22, 0.00, 0.00, 0.000, 0.000, 0.000, 14:24:41.422
93, 22.85, -10.15, 0.00, 0.00, 0.000, 0.000, 0.000, 14:24:41.437
94, 22.52, -12.02, 0.00, 0.00, 0.000, 0.000, 0.000, 14:24:41.437
95, 24.22, -9.40, 0.00, 0.00, 0.000, 0.000, 0.000, 14:24:41.437
96, 29.09, -11.85, 0.00, 0.00, 0.000, 0.000, 0.000, 14:24:41.437
97, 26.17, -12.55, 0.00, 0.00, 0.000, 0.000, 0.000, 14:24:41.452
98, 27.34, -12.64, 0.00, 0.00, 0.000, 0.000, 0.000, 14:24:41.452
99, 21.68, -9.34, 0.00, 0.00, 0.000, 0.000, 0.000, 14:24:41.467
100, 17.42, -8.97, 0.00, 0.00, 0.000, 0.000, 0.000, 14:24:41.467
101, 18.15, -10.44, 0.00, 0.00, 0.000, 0.000, 0.000, 14:24:41.467
102, 22.81, -14.34, 0.00, 0.00, 0.000, 0.000, 0.000, 14:24:41.467
103, 20.86, -11.93, 0.00, 0.00, 0.000, 0.000, 0.000, 14:24:41.482
104, 17.26, -5.36, 0.00, 0.00, 0.000, 0.000, 0.000, 14:24:41.482
105, 21.79, -10.78, 0.00, 0.00, 0.000, 0.000, 0.000, 14:24:41.497
106, 21.36, -17.09, 0.00, 0.00, 0.000, 0.000, 0.000, 14:24:41.497
107, 18.97, -10.03, 0.00, 0.00, 0.000, 0.000, 0.000, 14:24:41.497
108, 19.76, -10.08, 0.00, 0.00, 0.000, 0.000, 0.000, 14:24:41.497
109, 23.32, -14.09, 0.00, 0.00, 0.000, 0.000, 0.000, 14:24:41.512
110, 22.87, -13.14, 0.00, 0.00, 0.000, 0.000, 0.000, 14:24:41.512
111, 21.08, -8.57, 0.00, 0.00, 0.000, 0.000, 0.000, 14:24:41.527
112, 22.54, -7.81, 0.00, 0.00, 0.000, 0.000, 0.000, 14:24:41.527
113, 21.61, -8.71, 0.00, 0.00, 0.000, 0.000, 0.000, 14:24:41.527
114, 20.65, -7.72, 0.00, 0.00, 0.000, 0.000, 0.000, 14:24:41.527
115, 25.76, -8.25, 0.00, 0.00, 0.000, 0.000, 0.000, 14:24:41.542
116, 22.30, -7.34, 0.00, 0.00, 0.000, 0.000, 0.000, 14:24:41.542
117, 24.49, -5.94, 0.00, 0.00, 0.000, 0.000, 0.000, 14:24:41.557
118, 24.64, -10.54, 0.00, 0.00, 0.000, 0.000, 0.000, 14:24:41.557
119, 23.10, -9.54, 0.00, 0.00, 0.000, 0.000, 0.000, 14:24:41.557
120, 21.48, -8.43, 0.00, 0.00, 0.000, 0.000, 0.000, 14:24:41.557
121, 21.94, -7.92, 0.00, 0.00, 0.000, 0.000, 0.000, 14:24:41.572
122, 19.41, -9.54, 0.00, 0.00, 0.000, 0.000, 0.000, 14:24:41.572
123, 26.14, -5.76, 0.00, 0.00, 0.000, 0.000, 0.000, 14:24:41.587
124, 24.57, -3.78, 0.00, 0.00, 0.000, 0.000, 0.000, 14:24:41.587
125, 20.71, -6.08, 0.00, 0.00, 0.000, 0.000, 0.000, 14:24:41.587
126, 21.51, -6.22, 0.00, 0.00, 0.000, 0.000, 0.000, 14:24:41.587
127, 22.88, -4.56, 0.00, 0.00, 0.000, 0.000, 0.000, 14:24:41.602
128, 18.85, -5.85, 0.00, 0.00, 0.000, 0.000, 0.000, 14:24:41.602
129, 24.91, -7.89, 0.00, 0.00, 0.000, 0.000, 0.000, 14:24:41.617
130, 26.39, -13.27, 0.00, 0.00, 0.000, 0.000, 0.000, 14:24:41.617
131, 23.70, -6.08, 0.00, 0.00, 0.000, 0.000, 0.000, 14:24:41.617
132, 23.53, -5.63, 0.00, 0.00, 0.000, 0.000, 0.000, 14:24:41.617
133, 23.57, -6.92, 0.00, 0.00, 0.000, 0.000, 0.000, 14:24:41.632
134, 24.10, -7.80, 0.00, 0.00, 0.000, 0.000, 0.000, 14:24:41.632
135, 21.89, -3.12, 0.00, 0.00, 0.000, 0.000, 0.000, 14:24:41.647
136, 21.73, -0.42, 0.00, 0.00, 0.000, 0.000, 0.000, 14:24:41.647
137, 21.21, -5.16, 0.00, 0.00, 0.000, 0.000, 0.000, 14:24:41.647
138, 25.33, -8.29, 0.00, 0.00, 0.000, 0.000, 0.000, 14:24:41.647
139, 20.45, -3.05, 0.00, 0.00, 0.000, 0.000, 0.000, 14:24:41.662
140, 23.42, -1.63, 0.00, 0.00, 0.000, 0.000, 0.000, 14:24:41.662
141, 20.57, -5.02, 0.00, 0.00, 0.000, 0.000, 0.000, 14:24:41.676
142, 22.75, -5.32, 0.00, 0.00, 0.000, 0.000, 0.000, 14:24:41.676
143, 21.73, -2.49, 0.00, 0.00, 0.000, 0.000, 0.000, 14:24:41.678
144, 24.85, -2.57, 0.00, 0.00, 0.000, 0.000, 0.000, 14:24:41.678
145, 25.36, -3.87, 0.00, 0.00, 0.000, 0.000, 0.000, 14:24:41.693
146, 27.61, -8.13, 0.00, 0.00, 0.000, 0.000, 0.000, 14:24:41.693
147, 22.30, -4.07, 0.00, 0.00, 0.000, 0.000, 0.000, 14:24:41.707
148, 21.26, -2.58, 0.00, 0.00, 0.000, 0.000, 0.000, 14:24:41.707
149, 24.16, -9.91, 0.00, 0.00, 0.000, 0.000, 0.000, 14:24:41.708
150, 23.72, -8.44, 0.00, 0.00, 0.000, 0.000, 0.000, 14:24:41.708
151, 21.60, -3.78, 0.00, 0.00, 0.000, 0.000, 0.000, 14:24:41.722
152, 21.10, -5.41, 0.00, 0.00, 0.000, 0.000, 0.000, 14:24:41.722
153, 25.60, -5.34, 0.00, 0.00, 0.000, 0.000, 0.000, 14:24:41.737
154, 28.46, -8.54, 0.00, 0.00, 0.000, 0.000, 0.000, 14:24:41.737
155, 24.83, -4.01, 0.00, 0.00, 0.000, 0.000, 0.000, 14:24:41.738
156, 24.80, -2.83, 0.00, 0.00, 0.000, 0.000, 0.000, 14:24:41.738
157, 20.51, -6.54, 0.00, 0.00, 0.000, 0.000, 0.000, 14:24:41.751
158, 17.56, -8.89, 0.00, 0.00, 0.000, 0.000, 0.000, 14:24:41.751
159, 20.19, -3.84, 0.00, 0.00, 0.000, 0.000, 0.000, 14:24:41.767
160, 22.35, -2.83, 0.00, 0.00, 0.000, 0.000, 0.000, 14:24:41.767
161, 20.15, -7.82, 0.00, 0.00, 0.000, 0.000, 0.000, 14:24:41.767
162, 21.94, -10.59, 0.00, 0.00, 0.000, 0.000, 0.000, 14:24:41.767
163, 21.72, -5.60, 0.00, 0.00, 0.000, 0.000, 0.000, 14:24:41.782
164, 22.50, -3.73, 0.00, 0.00, 0.000, 0.000, 0.000, 14:24:41.782
165, 22.02, -8.27, 0.00, 0.00, 0.000, 0.000, 0.000, 14:24:41.797
166, 18.64, -9.30, 0.00, 0.00, 0.000, 0.000, 0.000, 14:24:41.798
167, 21.03, -7.84, 0.00, 0.00, 0.000, 0.000, 0.000, 14:24:41.798
168, 19.33, -4.92, 0.00, 0.00, 0.000, 0.000, 0.000, 14:24:41.798
169, 19.90, -10.49, 0.00, 0.00, 0.000, 0.000, 0.000, 14:24:41.812
170, 21.15, -8.62, 0.00, 0.00, 0.000, 0.000, 0.000, 14:24:41.812
171, 23.42, -8.07, 0.00, 0.00, 0.000, 0.000, 0.000, 14:24:41.828
172, 24.33, -5.90, 0.00, 0.00, 0.000, 0.000, 0.000, 14:24:41.828
173, 20.60, -7.04, 0.00, 0.00, 0.000, 0.000, 0.000, 14:24:41.829
174, 22.48, -11.04, 0.00, 0.00, 0.000, 0.000, 0.000, 14:24:41.829
175, 17.77, -5.56, 0.00, 0.00, 0.000, 0.000, 0.000, 14:24:41.842
176, 20.06, -0.17, 0.00, 0.00, 0.000, 0.000, 0.000, 14:24:41.842
177, 22.11, -10.28, 0.00, 0.00, 0.000, 0.000, 0.000, 14:24:41.857
178, 22.24, -9.03, 0.00, 0.00, 0.000, 0.000, 0.000, 14:24:41.857
179, 20.57, -5.77, 0.00, 0.00, 0.000, 0.000, 0.000, 14:24:41.858
180, 20.29, -7.09, 0.00, 0.00, 0.000, 0.000, 0.000, 14:24:41.858
181, 21.65, -8.13, 0.00, 0.00, 0.000, 0.000, 0.000, 14:24:41.873
182, 25.79, -9.42, 0.00, 0.00, 0.000, 0.000, 0.000, 14:24:41.873
183, 23.01, -11.88, 0.00, 0.00, 0.000, 0.000, 0.000, 14:24:41.887
184, 23.01, -8.06, 0.00, 0.00, 0.000, 0.000, 0.000, 14:24:41.887
185, 20.56, -4.81, 0.00, 0.00, 0.000, 0.000, 0.000, 14:24:41.887
186, 20.42, -8.79, 0.00, 0.00, 0.000, 0.000, 0.000, 14:24:41.887
187, 23.28, -4.93, 0.00, 0.00, 0.000, 0.000, 0.000, 14:24:41.902
188, 20.26, -2.42, 0.00, 0.00, 0.000, 0.000, 0.000, 14:24:41.902
189, 21.99, -8.96, 0.00, 0.00, 0.000, 0.000, 0.000, 14:24:41.916
190, 18.37, -10.96, 0.00, 0.00, 0.000, 0.000, 0.000, 14:24:41.917
191, 17.67, -6.40, 0.00, 0.00, 0.000, 0.000, 0.000, 14:24:41.917
192, 19.07, -6.72, 0.00, 0.00, 0.000, 0.000, 0.000, 14:24:41.917
193, 20.87, -9.36, 0.00, 0.00, 0.000, 0.000, 0.000, 14:24:41.931
194, 17.59, -12.29, 0.00, 0.00, 0.000, 0.000, 0.000, 14:24:41.931
195, 20.59, -12.71, 0.00, 0.00, 0.000, 0.000, 0.000, 14:24:41.947
196, 21.33, -7.71, 0.00, 0.00, 0.000, 0.000, 0.000, 14:24:41.947
197, 19.33, -8.51, 0.00, 0.00, 0.000, 0.000, 0.000, 14:24:41.947
198, 23.87, -12.72, 0.00, 0.00, 0.000, 0.000, 0.000, 14:24:41.948
199, 24.05, -8.29, 0.00, 0.00, 0.000, 0.000, 0.000, 14:24:41.962
200, 20.33, -6.91, 0.00, 0.00, 0.000, 0.000, 0.000, 14:24:41.962
0, 22.68, -12.68, 0.00, 0.00, 0.000, 0.000, 0.000, 14:24:41.962
1, 21.34, -12.20, 0.00, 0.00, 0.000, 0.000, 0.000, 14:24:41.977
2, 24.00, -7.38, 0.00, 0.00, 0.000, 0.000, 0.000, 14:24:41.977
3, 22.94, -10.93, 0.00, 0.00, 0.000, 0.000, 0.000, 14:24:41.992
4, 23.49, -9.32, 0.00, 0.00, 0.000, 0.000, 0.000, 14:24:41.992
5, 23.78, -14.13, 0.00, 0.00, 0.000, 0.000, 0.000, 14:24:41.993
6, 22.56, -10.04, 0.00, 0.00, 0.000, 0.000, 0.000, 14:24:41.993
7, 23.51, -9.73, 0.00, 0.00, 0.000, 0.000, 0.000, 14:24:42.007
8, 19.55, -9.15, 0.00, 0.00, 0.000, 0.000, 0.000, 14:24:42.007
9, 24.09, -12.62, 0.00, 0.00, 0.000, 0.000, 0.000, 14:24:42.022
10, 22.99, -12.70, 0.00, 0.00, 0.000, 0.000, 0.000, 14:24:42.022
11, 19.89, -6.19, 0.00, 0.00, 0.000, 0.000, 0.000, 14:24:42.023
12, 23.27, -15.19, 0.00, 0.00, 0.000, 0.000, 0.000, 14:24:42.023
13, 23.40, -14.85, 0.00, 0.00, 0.000, 0.000, 0.000, 14:24:42.037
14, 18.21, -10.39, 0.00, 0.00, 0.000, 0.000, 0.000, 14:24:42.038
15, 24.94, -10.67, 0.00, 0.00, 0.000, 0.000, 0.000, 14:24:42.051
16, 29.69, -18.57, 0.00, 0.00, 0.000, 0.000, 0.000, 14:24:42.052
17, 30.50, -19.16, 0.00, 0.00, 0.000, 0.000, 0.000, 14:24:42.052
18, 28.61, -13.16, 0.00, 0.00, 0.000, 0.000, 0.000, 14:24:42.052
19, 29.84, -14.33, 0.00, 0.00, 0.000, 0.000, 0.000, 14:24:42.067
20, 21.33, -12.85, 0.00, 0.00, 0.000, 0.000, 0.000, 14:24:42.067
21, 21.23, -13.02, 0.00, 0.00, 0.000, 0.000, 0.000, 14:24:42.082
22, 19.54, -8.73, 0.00, 0.00, 0.000, 0.000, 0.000, 14:24:42.082
23, 19.67, -7.00, 0.00, 0.00, 0.000, 0.000, 0.000, 14:24:42.082
24, 21.57, -12.14, 0.00, 0.00, 0.000, 0.000, 0.000, 14:24:42.082
25, 20.45, -13.80, 0.00, 0.00, 0.000, 0.000, 0.000, 14:24:42.097
26, 18.54, -9.19, 0.00, 0.00, 0.000, 0.000, 0.000, 14:24:42.097
27, 23.27, -9.14, 0.00, 0.00, 0.000, 0.000, 0.000, 14:24:42.112
28, 25.41, -13.39, 0.00, 0.00, 0.000, 0.000, 0.000, 14:24:42.112
29, 20.35, -12.31, 0.00, 0.00, 0.000, 0.000, 0.000, 14:24:42.112
30, 24.01, -17.82, 0.00, 0.00, 0.000, 0.000, 0.000, 14:24:42.112
31, 26.91, -13.15, 0.00, 0.00, 0.000, 0.000, 0.000, 14:24:42.128
32, 23.72, -14.57, 0.00, 0.00, 0.000, 0.000, 0.000, 14:24:42.128
33, 21.02, -14.47, 0.00, 0.00, 0.000, 0.000, 0.000, 14:24:42.142
34, 20.17, -14.17, 0.00, 0.00, 0.000, 0.000, 0.000, 14:24:42.142
35, 20.11, -13.66, 0.00, 0.00, 0.000, 0.000, 0.000, 14:24:42.142
36, 21.07, -15.32, 0.00, 0.00, 0.000, 0.000, 0.000, 14:24:42.142
37, 22.81, -17.08, 0.00, 0.00, 0.000, 0.000, 0.000, 14:24:42.157
38, 16.85, -13.61, 0.00, 0.00, 0.000, 0.000, 0.000, 14:24:42.157
39, 21.76, -14.98, 0.00, 0.00, 0.000, 0.000, 0.000, 14:24:42.172
40, 22.04, -17.78, 0.00, 0.00, 0.000, 0.000, 0.000, 14:24:42.172
41, 23.51, -17.96, 0.00, 0.00, 0.000, 0.000, 0.000, 14:24:42.179
42, 19.48, -15.24, 0.00, 0.00, 0.000, 0.000, 0.000, 14:24:42.179
43, 23.85, -15.36, 0.00, 0.00, 0.000, 0.000, 0.000, 14:24:42.187
44, 21.51, -15.50, 0.00, 0.00, 0.000, 0.000, 0.000, 14:24:42.187
45, 18.46, -16.13, 0.00, 0.00, 0.000, 0.000, 0.000, 14:24:42.201
46, 22.62, -15.69, 0.00, 0.00, 0.000, 0.000, 0.000, 14:24:42.202
47, 20.19, -13.20, 0.00, 0.00, 0.000, 0.000, 0.000, 14:24:42.202
48, 26.57, -20.08, 0.00, 0.00, 0.000, 0.000, 0.000, 14:24:42.202
49, 24.20, -19.41, 0.00, 0.00, 0.000, 0.000, 0.000, 14:24:42.217
50, 22.62, -17.29, 0.00, 0.00, 0.000, 0.000, 0.000, 14:24:42.217
51, 21.08, -17.81, 0.00, 0.00, 0.000, 0.000, 0.000, 14:24:42.231
52, 20.77, -21.33, 0.00, 0.00, 0.000, 0.000, 0.000, 14:24:42.231
53, 21.17, -21.89, 0.00, 0.00, 0.000, 0.000, 0.000, 14:24:42.232
54, 25.47, -19.97, 0.00, 0.00, 0.000, 0.000, 0.000, 14:24:42.232
55, 26.55, -19.32, 0.00, 0.00, 0.000, 0.000, 0.000, 14:24:42.247
56, 23.88, -16.95, 0.00, 0.00, 0.000, 0.000, 0.000, 14:24:42.247
57, 23.87, -16.45, 0.00, 0.00, 0.000, 0.000, 0.000, 14:24:42.262
58, 21.45, -11.50, 0.00, 0.00, 0.000, 0.000, 0.000, 14:24:42.262
59, 20.15, -9.84, 0.00, 0.00, 0.000, 0.000, 0.000, 14:24:42.262
60, 21.23, -13.15, 0.00, 0.00, 0.000, 0.000, 0.000, 14:24:42.262
61, 22.63, -16.14, 0.00, 0.00, 0.000, 0.000, 0.000, 14:24:42.277
62, 22.49, -9.61, 0.00, 0.00, 0.000, 0.000, 0.000, 14:24:42.277
63, 27.10, -13.03, 0.00, 0.00, 0.000, 0.000, 0.000, 14:24:42.292
64, 27.36, -13.63, 0.00, 0.00, 0.000, 0.000, 0.000, 14:24:42.292
65, 24.56, -13.84, 0.00, 0.00, 0.000, 0.000, 0.000, 14:24:42.293
66, 24.74, -12.08, 0.00, 0.00, 0.000, 0.000, 0.000, 14:24:42.293
67, 23.57, -6.29, 0.00, 0.00, 0.000, 0.000, 0.000, 14:24:42.307
68, 18.41, -9.85, 0.00, 0.00, 0.000, 0.000, 0.000, 14:24:42.307
69, 22.05, -6.88, 0.00, 0.00, 0.000, 0.000, 0.000, 14:24:42.322
70, 18.58, -6.32, 0.00, 0.00, 0.000, 0.000, 0.000, 14:24:42.322
71, 19.55, -5.96, 0.00, 0.00, 0.000, 0.000, 0.000, 14:24:42.323
72, 20.70, -9.00, 0.00, 0.00, 0.000, 0.000, 0.000, 14:24:42.323
73, 20.32, -13.21, 0.00, 0.00, 0.000, 0.000, 0.000, 14:24:42.337
74, 17.05, -8.09, 0.00, 0.00, 0.000, 0.000, 0.000, 14:24:42.337
75, 20.93, -7.35, 0.00, 0.00, 0.000, 0.000, 0.000, 14:24:42.351
76, 19.66, -10.83, 0.00, 0.00, 0.000, 0.000, 0.000, 14:24:42.351
77, 22.40, -12.43, 0.00, 0.00, 0.000, 0.000, 0.000, 14:24:42.352
78, 23.91, -11.02, 0.00, 0.00, 0.000, 0.000, 0.000, 14:24:42.352
79, 21.12, -7.31, 0.00, 0.00, 0.000, 0.000, 0.000, 14:24:42.367
80, 20.75, -9.91, 0.00, 0.00, 0.000, 0.000, 0.000, 14:24:42.367
81, 22.90, -14.24, 0.00, 0.00, 0.000, 0.000, 0.000, 14:24:42.382
82, 26.91, -12.20, 0.00, 0.00, 0.000, 0.000, 0.000, 14:24:42.382
83, 25.13, -8.89, 0.00, 0.00, 0.000, 0.000, 0.000, 14:24:42.397
84, 21.52, -11.04, 0.00, 0.00, 0.000, 0.000, 0.000, 14:24:42.397
85, 20.29, -9.85, 0.00, 0.00, 0.000, 0.000, 0.000, 14:24:42.398
86, 20.61, -7.98, 0.00, 0.00, 0.000, 0.000, 0.000, 14:24:42.398
87, 21.13, -6.46, 0.00, 0.00, 0.000, 0.000, 0.000, 14:24:42.412
88, 24.28, -14.55, 0.00, 0.00, 0.000, 0.000, 0.000, 14:24:42.412
89, 26.85, -13.78, 0.00, 0.00, 0.000, 0.000, 0.000, 14:24:42.413
90, 26.37, -12.74, 0.00, 0.00, 0.000, 0.000, 0.000, 14:24:42.413
91, 28.09, -8.37, 0.00, 0.00, 0.000, 0.000, 0.000, 14:24:42.428
92, 19.37, -11.17, 0.00, 0.00, 0.000, 0.000, 0.000, 14:24:42.428
93, 17.51, -10.85, 0.00, 0.00, 0.000, 0.000, 0.000, 14:24:42.442
94, 23.08, -9.64, 0.00, 0.00, 0.000, 0.000, 0.000, 14:24:42.442
95, 19.53, -6.56, 0.00, 0.00, 0.000, 0.000, 0.000, 14:24:42.442
96, 20.39, -10.24, 0.00, 0.00, 0.000, 0.000, 0.000, 14:24:42.442
97, 22.62, -10.91, 0.00, 0.00, 0.000, 0.000, 0.000, 14:24:42.457
98, 23.15, -6.08, 0.00, 0.00, 0.000, 0.000, 0.000, 14:24:42.457
99, 20.33, -8.15, 0.00, 0.00, 0.000, 0.000, 0.000, 14:24:42.487
100, 24.69, -9.80, 0.00, 0.00, 0.000, 0.000, 0.000, 14:24:42.487
101, 25.11, -12.43, 0.00, 0.00, 0.000, 0.000, 0.000, 14:24:42.487
102, 24.01, -9.23, 0.00, 0.00, 0.000, 0.000, 0.000, 14:24:42.487
103, 22.91, -5.96, 0.00, 0.00, 0.000, 0.000, 0.000, 14:24:42.488
104, 21.56, -2.90, 0.00, 0.00, 0.000, 0.000, 0.000, 14:24:42.488
105, 21.04, -5.68, 0.00, 0.00, 0.000, 0.000, 0.000, 14:24:42.489
106, 17.77, -2.46, 0.00, 0.00, 0.000, 0.000, 0.000, 14:24:42.489
107, 16.04, -4.11, 0.00, 0.00, 0.000, 0.000, 0.000, 14:24:42.502
108, 19.64, -8.36, 0.00, 0.00, 0.000, 0.000, 0.000, 14:24:42.502
109, 21.46, -7.89, 0.00, 0.00, 0.000, 0.000, 0.000, 14:24:42.517
110, 20.43, -3.38, 0.00, 0.00, 0.000, 0.000, 0.000, 14:24:42.517
111, 23.65, -2.37, 0.00, 0.00, 0.000, 0.000, 0.000, 14:24:42.532
112, 20.14, -6.85, 0.00, 0.00, 0.000, 0.000, 0.000, 14:24:42.532
113, 26.67, -10.23, 0.00, 0.00, 0.000, 0.000, 0.000, 14:24:42.532
114, 30.49, -7.22, 0.00, 0.00, 0.000, 0.000, 0.000, 14:24:42.532
115, 30.85, -6.63, 0.00, 0.00, 0.000, 0.000, 0.000, 14:24:42.547
116, 23.33, -8.13, 0.00, 0.00, 0.000, 0.000, 0.000, 14:24:42.547
117, 20.85, -9.31, 0.00, 0.00, 0.000, 0.000, 0.000, 14:24:42.562
118, 23.48, -3.14, 0.00, 0.00, 0.000, 0.000, 0.000, 14:24:42.562
119, 22.46, -4.60, 0.00, 0.00, 0.000, 0.000, 0.000, 14:24:42.563
120, 20.32, -5.69, 0.00, 0.00, 0.000, 0.000, 0.000, 14:24:42.563
121, 21.74, -7.36, 0.00, 0.00, 0.000, 0.000, 0.000, 14:24:42.577
122, 22.18, -4.79, 0.00, 0.00, 0.000, 0.000, 0.000, 14:24:42.577
123, 23.38, -2.66, 0.00, 0.00, 0.000, 0.000, 0.000, 14:24:42.592
124, 23.79, -4.85, 0.00, 0.00, 0.000, 0.000, 0.000, 14:24:42.592
125, 19.21, -8.36, 0.00, 0.00, 0.000, 0.000, 0.000, 14:24:42.592
126, 23.51, -7.37, 0.00, 0.00, 0.000, 0.000, 0.000, 14:24:42.593
127, 26.24, -4.44, 0.00, 0.00, 0.000, 0.000, 0.000, 14:24:42.607
128, 20.58, -6.96, 0.00, 0.00, 0.000, 0.000, 0.000, 14:24:42.607
129, 23.21, -4.25, 0.00, 0.00, 0.000, 0.000, 0.000, 14:24:42.622
130, 22.51, -5.80, 0.00, 0.00, 0.000, 0.000, 0.000, 14:24:42.622
131, 21.13, -2.70, 0.00, 0.00, 0.000, 0.000, 0.000, 14:24:42.623
132, 20.69, -5.97, 0.00, 0.00, 0.000, 0.000, 0.000, 14:24:42.623
133, 22.16, -9.46, 0.00, 0.00, 0.000, 0.000, 0.000, 14:24:42.637
134, 23.00, -6.38, 0.00, 0.00, 0.000, 0.000, 0.000, 14:24:42.638
135, 22.16, -3.37, 0.00, 0.00, 0.000, 0.000, 0.000, 14:24:42.652
136, 28.86, -5.67, 0.00, 0.00, 0.000, 0.000, 0.000, 14:24:42.652
137, 28.08, -12.13, 0.00, 0.00, 0.000, 0.000, 0.000, 14:24:42.652
138, 27.72, -7.28, 0.00, 0.00, 0.000, 0.000, 0.000, 14:24:42.652
139, 24.92, -4.60, 0.00, 0.00, 0.000, 0.000, 0.000, 14:24:42.673
140, 18.88, -4.95, 0.00, 0.00, 0.000, 0.000, 0.000, 14:24:42.673
141, 18.53, -7.97, 0.00, 0.00, 0.000, 0.000, 0.000, 14:24:42.682
142, 15.78, -6.96, 0.00, 0.00, 0.000, 0.000, 0.000, 14:24:42.682
143, 18.02, -5.29, 0.00, 0.00, 0.000, 0.000, 0.000, 14:24:42.682
144, 17.75, -6.31, 0.00, 0.00, 0.000, 0.000, 0.000, 14:24:42.683
145, 22.35, -6.87, 0.00, 0.00, 0.000, 0.000, 0.000, 14:24:42.697
146, 20.56, -4.57, 0.00, 0.00, 0.000, 0.000, 0.000, 14:24:42.698
147, 21.93, -3.12, 0.00, 0.00, 0.000, 0.000, 0.000, 14:24:42.712
148, 21.78, -7.06, 0.00, 0.00, 0.000, 0.000, 0.000, 14:24:42.712
149, 22.88, -6.89, 0.00, 0.00, 0.000, 0.000, 0.000, 14:24:42.712
150, 25.57, -9.15, 0.00, 0.00, 0.000, 0.000, 0.000, 14:24:42.712
151, 31.41, -7.68, 0.00, 0.00, 0.000, 0.000, 0.000, 14:24:42.727
152, 25.80, -6.33, 0.00, 0.00, 0.000, 0.000, 0.000, 14:24:42.727
153, 24.55, -7.79, 0.00, 0.00, 0.000, 0.000, 0.000, 14:24:42.742
154, 19.92, -1.48, 0.00, 0.00, 0.000, 0.000, 0.000, 14:24:42.742
155, 23.81, -2.35, 0.00, 0.00, 0.000, 0.000, 0.000, 14:24:42.742
156, 20.08, -5.56, 0.00, 0.00, 0.000, 0.000, 0.000, 14:24:42.742
157, 19.61, -6.36, 0.00, 0.00, 0.000, 0.000, 0.000, 14:24:42.757
158, 15.82, -8.62, 0.00, 0.00, 0.000, 0.000, 0.000, 14:24:42.757
159, 20.87, -2.57, 0.00, 0.00, 0.000, 0.000, 0.000, 14:24:42.772
160, 18.51, -5.36, 0.00, 0.00, 0.000, 0.000, 0.000, 14:24:42.772
161, 24.32, -7.76, 0.00, 0.00, 0.000, 0.000, 0.000, 14:24:42.772
162, 21.33, -1.82, 0.00, 0.00, 0.000, 0.000, 0.000, 14:24:42.772
163, 22.22, -5.58, 0.00, 0.00, 0.000, 0.000, 0.000, 14:24:42.787
164, 19.30, -6.81, 0.00, 0.00, 0.000, 0.000, 0.000, 14:24:42.787
165, 22.41, -8.46, 0.00, 0.00, 0.000, 0.000, 0.000, 14:24:42.802
166, 21.09, -8.76, 0.00, 0.00, 0.000, 0.000, 0.000, 14:24:42.802
167, 23.88, -6.27, 0.00, 0.00, 0.000, 0.000, 0.000, 14:24:42.802
168, 21.21, -11.86, 0.00, 0.00, 0.000, 0.000, 0.000, 14:24:42.803
169, 23.84, -11.32, 0.00, 0.00, 0.000, 0.000, 0.000, 14:24:42.817
170, 19.20, -7.34, 0.00, 0.00, 0.000, 0.000, 0.000, 14:24:42.817
171, 21.76, -8.05, 0.00, 0.00, 0.000, 0.000, 0.000, 14:24:42.832
172, 21.85, -11.08, 0.00, 0.00, 0.000, 0.000, 0.000, 14:24:42.832
173, 21.27, -7.07, 0.00, 0.00, 0.000, 0.000, 0.000, 14:24:42.832
174, 22.86, -4.41, 0.00, 0.00, 0.000, 0.000, 0.000, 14:24:42.832
175, 22.46, -4.88, 0.00, 0.00, 0.000, 0.000, 0.000, 14:24:42.847
176, 26.15, -10.60, 0.00, 0.00, 0.000, 0.000, 0.000, 14:24:42.847
177, 23.33, -12.17, 0.00, 0.00, 0.000, 0.000, 0.000, 14:24:42.862
178, 22.29, -9.58, 0.00, 0.00, 0.000, 0.000, 0.000, 14:24:42.862
179, 20.71, -6.68, 0.00, 0.00, 0.000, 0.000, 0.000, 14:24:42.862
180, 28.38, -9.90, 0.00, 0.00, 0.000, 0.000, 0.000, 14:24:42.862
181, 31.11, -13.13, 0.00, 0.00, 0.000, 0.000, 0.000, 14:24:42.877
182, 26.42, -9.15, 0.00, 0.00, 0.000, 0.000, 0.000, 14:24:42.877
183, 26.87, -3.10, 0.00, 0.00, 0.000, 0.000, 0.000, 14:24:42.892
184, 19.11, -10.23, 0.00, 0.00, 0.000, 0.000, 0.000, 14:24:42.892
185, 19.27, -9.86, 0.00, 0.00, 0.000, 0.000, 0.000, 14:24:42.892
186, 22.49, -8.71, 0.00, 0.00, 0.000, 0.000, 0.000, 14:24:42.892
187, 23.72, -7.47, 0.00, 0.00, 0.000, 0.000, 0.000, 14:24:42.908
188, 21.42, -7.90, 0.00, 0.00, 0.000, 0.000, 0.000, 14:24:42.908
189, 26.46, -11.75, 0.00, 0.00, 0.000, 0.000, 0.000, 14:24:42.922
190, 25.16, -8.33, 0.00, 0.00, 0.000, 0.000, 0.000, 14:24:42.922
191, 23.65, -10.12, 0.00, 0.00, 0.000, 0.000, 0.000, 14:24:42.923
192, 21.36, -13.51, 0.00, 0.00, 0.000, 0.000, 0.000, 14:24:42.923
193, 26.07, -13.06, 0.00, 0.00, 0.000, 0.000, 0.000, 14:24:42.937
194, 24.45, -7.93, 0.00, 0.00, 0.000, 0.000, 0.000, 14:24:42.937
195, 27.46, -13.03, 0.00, 0.00, 0.000, 0.000, 0.000, 14:24:42.952
196, 27.48, -14.14, 0.00, 0.00, 0.000, 0.000, 0.000, 14:24:42.952
197, 23.67, -12.87, 0.00, 0.00, 0.000, 0.000, 0.000, 14:24:42.952
198, 20.68, -7.42, 0.00, 0.00, 0.000, 0.000, 0.000, 14:24:42.953
199, 20.24, -6.69, 0.00, 0.00, 0.000, 0.000, 0.000, 14:24:42.967
200, 17.63, -11.25, 0.00, 0.00, 0.000, 0.000, 0.000, 14:24:42.967
0, 21.41, -11.96, 0.00, 0.00, 0.000, 0.000, 0.000, 14:24:42.967
1, 22.70, -10.87, 0.00, 0.00, 0.000, 0.000, 0.000, 14:24:42.982
2, 25.58, -8.64, 0.00, 0.00, 0.000, 0.000, 0.000, 14:24:42.982
3, 22.16, -10.86, 0.00, 0.00, 0.000, 0.000, 0.000, 14:24:42.997
4, 25.75, -11.72, 0.00, 0.00, 0.000, 0.000, 0.000, 14:24:42.997
5, 23.49, -10.43, 0.00, 0.00, 0.000, 0.000, 0.000, 14:24:43.004
6, 22.59, -9.98, 0.00, 0.00, 0.000, 0.000, 0.000, 14:24:43.004
7, 22.92, -11.42, 0.00, 0.00, 0.000, 0.000, 0.000, 14:24:43.012
8, 20.59, -8.89, 0.00, 0.00, 0.000, 0.000, 0.000, 14:24:43.012
9, 19.02, -8.16, 0.00, 0.00, 0.000, 0.000, 0.000, 14:24:43.027
10, 22.48, -4.51, 0.00, 0.00, 0.000, 0.000, 0.000, 14:24:43.027
11, 18.97, -9.38, 0.00, 0.00, 0.000, 0.000, 0.000, 14:24:43.028
12, 21.38, -10.57, 0.00, 0.00, 0.000, 0.000, 0.000, 14:24:43.028
13, 21.56, -9.20, 0.00, 0.00, 0.000, 0.000, 0.000, 14:24:43.042
14, 19.09, -5.03, 0.00, 0.00, 0.000, 0.000, 0.000, 14:24:43.042
15, 19.10, -7.65, 0.00, 0.00, 0.000, 0.000, 0.000, 14:24:43.057
16, 20.40, -11.60, 0.00, 0.00, 0.000, 0.000, 0.000, 14:24:43.057
17, 24.34, -6.59, 0.00, 0.00, 0.000, 0.000, 0.000, 14:24:43.057
18, 22.36, -7.42, 0.00, 0.00, 0.000, 0.000, 0.000, 14:24:43.057
19, 23.91, -8.91, 0.00, 0.00, 0.000, 0.000, 0.000, 14:24:43.072
20, 25.53, -11.54, 0.00, 0.00, 0.000, 0.000, 0.000, 14:24:43.072
21, 22.76, -7.87, 0.00, 0.00, 0.000, 0.000, 0.000, 14:24:43.087
22, 26.49, -9.10, 0.00, 0.00, 0.000, 0.000, 0.000, 14:24:43.087
23, 23.75, -13.32, 0.00, 0.00, 0.000, 0.000, 0.000, 14:24:43.087
24, 30.98, -14.20, 0.00, 0.00, 0.000, 0.000, 0.000, 14:24:43.087
25, 31.88, -11.51, 0.00, 0.00, 0.000, 0.000, 0.000, 14:24:43.102
26, 26.44, -6.78, 0.00, 0.00, 0.000, 0.000, 0.000, 14:24:43.102
27, 23.03, -11.05, 0.00, 0.00, 0.000, 0.000, 0.000, 14:24:43.117
28, 22.74, -9.95, 0.00, 0.00, 0.000, 0.000, 0.000, 14:24:43.117
29, 20.04, -7.53, 0.00, 0.00, 0.000, 0.000, 0.000, 14:24:43.117
30, 21.34, -7.77, 0.00, 0.00, 0.000, 0.000, 0.000, 14:24:43.117
31, 23.38, -14.95, 0.00, 0.00, 0.000, 0.000, 0.000, 14:24:43.132
32, 17.85, -12.74, 0.00, 0.00, 0.000, 0.000, 0.000, 14:24:43.132
33, 20.38, -8.91, 0.00, 0.00, 0.000, 0.000, 0.000, 14:24:43.147
34, 25.10, -8.58, 0.00, 0.00, 0.000, 0.000, 0.000, 14:24:43.147
35, 25.29, -13.53, 0.00, 0.00, 0.000, 0.000, 0.000, 14:24:43.147
36, 31.08, -19.19, 0.00, 0.00, 0.000, 0.000, 0.000, 14:24:43.147
37, 27.44, -14.37, 0.00, 0.00, 0.000, 0.000, 0.000, 14:24:43.161
38, 22.23, -8.08, 0.00, 0.00, 0.000, 0.000, 0.000, 14:24:43.162
39, 19.38, -11.67, 0.00, 0.00, 0.000, 0.000, 0.000, 14:24:43.177
40, 20.11, -12.01, 0.00, 0.00, 0.000, 0.000, 0.000, 14:24:43.177
41, 20.41, -6.10, 0.00, 0.00, 0.000, 0.000, 0.000, 14:24:43.180
42, 22.34, -11.18, 0.00, 0.00, 0.000, 0.000, 0.000, 14:24:43.180
43, 18.85, -12.27, 0.00, 0.00, 0.000, 0.000, 0.000, 14:24:43.195
44, 21.85, -12.99, 0.00, 0.00, 0.000, 0.000, 0.000, 14:24:43.195
45, 23.35, -10.52, 0.00, 0.00, 0.000, 0.000, 0.000, 14:24:43.207
46, 24.10, -12.71, 0.00, 0.00, 0.000, 0.000, 0.000, 14:24:43.207
47, 19.73, -11.17, 0.00, 0.00, 0.000, 0.000, 0.000, 14:24:43.207
48, 22.14, -14.77, 0.00, 0.00, 0.000, 0.000, 0.000, 14:24:43.207
49, 21.95, -13.18, 0.00, 0.00, 0.000, 0.000, 0.000, 14:24:43.222
50, 22.03, -8.99, 0.00, 0.00, 0.000, 0.000, 0.000, 14:24:43.222
51, 24.31, -12.34, 0.00, 0.00, 0.000, 0.000, 0.000, 14:24:43.237
52, 31.17, -16.96, 0.00, 0.00, 0.000, 0.000, 0.000, 14:24:43.237
53, 28.08, -12.67, 0.00, 0.00, 0.000, 0.000, 0.000, 14:24:43.237
54, 27.31, -10.48, 0.00, 0.00, 0.000, 0.000, 0.000, 14:24:43.237
55, 27.98, -14.41, 0.00, 0.00, 0.000, 0.000, 0.000, 14:24:43.251
56, 25.74, -11.05, 0.00, 0.00, 0.000, 0.000, 0.000, 14:24:43.251
57, 20.56, -6.84, 0.00, 0.00, 0.000, 0.000, 0.000, 14:24:43.267
58, 23.31, -6.48, 0.00, 0.00, 0.000, 0.000, 0.000, 14:24:43.267
59, 22.49, -12.86, 0.00, 0.00, 0.000, 0.000, 0.000, 14:24:43.267
60, 21.53, -11.37, 0.00, 0.00, 0.000, 0.000, 0.000, 14:24:43.267
61, 27.94, -10.01, 0.00, 0.00, 0.000, 0.000, 0.000, 14:24:43.282
62, 22.65, -5.42, 0.00, 0.00, 0.000, 0.000, 0.000, 14:24:43.282
63, 20.37, -8.66, 0.00, 0.00, 0.000, 0.000, 0.000, 14:24:43.297
64, 24.64, -9.69, 0.00, 0.00, 0.000, 0.000, 0.000, 14:24:43.298
65, 20.57, -5.25, 0.00, 0.00, 0.000, 0.000, 0.000, 14:24:43.298
66, 22.50, -5.57, 0.00, 0.00, 0.000, 0.000, 0.000, 14:24:43.298
67, 22.14, -9.43, 0.00, 0.00, 0.000, 0.000, 0.000, 14:24:43.312
68, 22.95, -12.27, 0.00, 0.00, 0.000, 0.000, 0.000, 14:24:43.312
69, 25.47, -6.13, 0.00, 0.00, 0.000, 0.000, 0.000, 14:24:43.328
70, 23.64, -7.21, 0.00, 0.00, 0.000, 0.000, 0.000, 14:24:43.328
71, 20.29, -13.81, 0.00, 0.00, 0.000, 0.000, 0.000, 14:24:43.328
72, 24.69, -17.58, 0.00, 0.00, 0.000, 0.000, 0.000, 14:24:43.328
73, 27.19, -13.75, 0.00, 0.00, 0.000, 0.000, 0.000, 14:24:43.342
74, 24.16, -10.47, 0.00, 0.00, 0.000, 0.000, 0.000, 14:24:43.342
75, 27.30, -14.47, 0.00, 0.00, 0.000, 0.000, 0.000, 14:24:43.357
76, 28.48, -15.10, 0.00, 0.00, 0.000, 0.000, 0.000, 14:24:43.357
77, 19.98, -6.57, 0.00, 0.00, 0.000, 0.000, 0.000, 14:24:43.357
78, 23.14, -6.36, 0.00, 0.00, 0.000, 0.000, 0.000, 14:24:43.357
79, 20.98, -14.00, 0.00, 0.00, 0.000, 0.000, 0.000, 14:24:43.387
80, 19.70, -11.73, 0.00, 0.00, 0.000, 0.000, 0.000, 14:24:43.387
81, 24.96, -8.34, 0.00, 0.00, 0.000, 0.000, 0.000, 14:24:43.387
82, 24.53, -9.17, 0.00, 0.00, 0.000, 0.000, 0.000, 14:24:43.387
83, 22.16, -9.08, 0.00, 0.00, 0.000, 0.000, 0.000, 14:24:43.388
84, 25.35, -11.24, 0.00, 0.00, 0.000, 0.000, 0.000, 14:24:43.389
85, 22.69, -7.51, 0.00, 0.00, 0.000, 0.000, 0.000, 14:24:43.402
86, 20.80, -7.91, 0.00, 0.00, 0.000, 0.000, 0.000, 14:24:43.402
87, 22.43, -7.42, 0.00, 0.00, 0.000, 0.000, 0.000, 14:24:43.417
88, 22.02, -11.49, 0.00, 0.00, 0.000, 0.000, 0.000, 14:24:43.417
89, 24.05, -10.29, 0.00, 0.00, 0.000, 0.000, 0.000, 14:24:43.417
90, 30.12, -12.08, 0.00, 0.00, 0.000, 0.000, 0.000, 14:24:43.417
91, 29.40, -17.29, 0.00, 0.00, 0.000, 0.000, 0.000, 14:24:43.431
92, 24.18, -13.20, 0.00, 0.00, 0.000, 0.000, 0.000, 14:24:43.432
93, 22.11, -7.94, 0.00, 0.00, 0.000, 0.000, 0.000, 14:24:43.447
94, 25.34, -5.70, 0.00, 0.00, 0.000, 0.000, 0.000, 14:24:43.447
95, 19.71, -6.68, 0.00, 0.00, 0.000, 0.000, 0.000, 14:24:43.447
96, 22.56, -9.89, 0.00, 0.00, 0.000, 0.000, 0.000, 14:24:43.447
97, 24.06, -7.15, 0.00, 0.00, 0.000, 0.000, 0.000, 14:24:43.462
98, 20.70, -7.54, 0.00, 0.00, 0.000, 0.000, 0.000, 14:24:43.462
99, 19.54, -10.30, 0.00, 0.00, 0.000, 0.000, 0.000, 14:24:43.477
100, 22.21, -9.59, 0.00, 0.00, 0.000, 0.000, 0.000, 14:24:43.477
101, 24.93, -11.32, 0.00, 0.00, 0.000, 0.000, 0.000, 14:24:43.484
102, 26.36, -10.24, 0.00, 0.00, 0.000, 0.000, 0.000, 14:24:43.484
103, 29.53, -11.25, 0.00, 0.00, 0.000, 0.000, 0.000, 14:24:43.494
104, 21.53, -8.85, 0.00, 0.00, 0.000, 0.000, 0.000, 14:24:43.494
105, 22.55, -5.59, 0.00, 0.00, 0.000, 0.000, 0.000, 14:24:43.507
106, 18.24, -8.61, 0.00, 0.00, 0.000, 0.000, 0.000, 14:24:43.507
107, 19.76, -10.44, 0.00, 0.00, 0.000, 0.000, 0.000, 14:24:43.508
108, 21.85, -12.12, 0.00, 0.00, 0.000, 0.000, 0.000, 14:24:43.508
109, 23.73, -7.41, 0.00, 0.00, 0.000, 0.000, 0.000, 14:24:43.522
110, 20.29, -9.46, 0.00, 0.00, 0.000, 0.000, 0.000, 14:24:43.522
111, 22.24, -10.03, 0.00, 0.00, 0.000, 0.000, 0.000, 14:24:43.537
112, 20.09, -9.42, 0.00, 0.00, 0.000, 0.000, 0.000, 14:24:43.537
113, 25.59, -10.83, 0.00, 0.00, 0.000, 0.000, 0.000, 14:24:43.537
114, 30.43, -9.36, 0.00, 0.00, 0.000, 0.000, 0.000, 14:24:43.537
115, 28.83, -16.92, 0.00, 0.00, 0.000, 0.000, 0.000, 14:24:43.551
116, 22.49, -8.16, 0.00, 0.00, 0.000, 0.000, 0.000, 14:24:43.551
117, 20.31, -6.61, 0.00, 0.00, 0.000, 0.000, 0.000, 14:24:43.566
118, 19.95, -7.43, 0.00, 0.00, 0.000, 0.000, 0.000, 14:24:43.566
119, 22.02, -11.17, 0.00, 0.00, 0.000, 0.000, 0.000, 14:24:43.567
120, 20.94, -11.37, 0.00, 0.00, 0.000, 0.000, 0.000, 14:24:43.567
121, 24.34, -11.24, 0.00, 0.00, 0.000, 0.000, 0.000, 14:24:43.582
122, 18.62, -8.31, 0.00, 0.00, 0.000, 0.000, 0.000, 14:24:43.582
123, 22.96, -10.37, 0.00, 0.00, 0.000, 0.000, 0.000, 14:24:43.597
124, 28.10, -12.50, 0.00, 0.00, 0.000, 0.000, 0.000, 14:24:43.597
125, 23.39, -7.25, 0.00, 0.00, 0.000, 0.000, 0.000, 14:24:43.598
126, 22.28, -7.64, 0.00, 0.00, 0.000, 0.000, 0.000, 14:24:43.598
127, 22.84, -11.30, 0.00, 0.00, 0.000, 0.000, 0.000, 14:24:43.612
128, 22.55, -10.13, 0.00, 0.00, 0.000, 0.000, 0.000, 14:24:43.612
129, 24.42, -8.42, 0.00, 0.00, 0.000, 0.000, 0.000, 14:24:43.628
130, 24.71, -10.41, 0.00, 0.00, 0.000, 0.000, 0.000, 14:24:43.628
131, 25.33, -11.53, 0.00, 0.00, 0.000, 0.000, 0.000, 14:24:43.628
132, 24.96, -12.50, 0.00, 0.00, 0.000, 0.000, 0.000, 14:24:43.628
133, 24.15, -10.56, 0.00, 0.00, 0.000, 0.000, 0.000, 14:24:43.642
134, 20.07, -6.55, 0.00, 0.00, 0.000, 0.000, 0.000, 14:24:43.642
135, 26.72, -10.61, 0.00, 0.00, 0.000, 0.000, 0.000, 14:24:43.657
136, 29.82, -14.49, 0.00, 0.00, 0.000, 0.000, 0.000, 14:24:43.657
137, 27.02, -10.65, 0.00, 0.00, 0.000, 0.000, 0.000, 14:24:43.657
138, 21.67, -7.07, 0.00, 0.00, 0.000, 0.000, 0.000, 14:24:43.657
139, 24.69, -9.53, 0.00, 0.00, 0.000, 0.000, 0.000, 14:24:43.672
140, 20.46, -7.10, 0.00, 0.00, 0.000, 0.000, 0.000, 14:24:43.672
141, 22.51, -7.97, 0.00, 0.00, 0.000, 0.000, 0.000, 14:24:43.687
142, 23.65, -10.22, 0.00, 0.00, 0.000, 0.000, 0.000, 14:24:43.687
143, 22.52, -10.98, 0.00, 0.00, 0.000, 0.000, 0.000, 14:24:43.688
144, 22.11, -10.56, 0.00, 0.00, 0.000, 0.000, 0.000, 14:24:43.688
145, 20.83, -4.43, 0.00, 0.00, 0.000, 0.000, 0.000, 14:24:43.702
146, 20.70, -5.72, 0.00, 0.00, 0.000, 0.000, 0.000, 14:24:43.702
147, 22.62, -10.89, 0.00, 0.00, 0.000, 0.000, 0.000, 14:24:43.717
148, 27.44, -10.66, 0.00, 0.00, 0.000, 0.000, 0.000, 14:24:43.717
149, 25.43, -3.74, 0.00, 0.00, 0.000, 0.000, 0.000, 14:24:43.717
150, 24.39, -4.33, 0.00, 0.00, 0.000, 0.000, 0.000, 14:24:43.717
151, 22.37, -12.04, 0.00, 0.00, 0.000, 0.000, 0.000, 14:24:43.731
152, 20.76, -10.53, 0.00, 0.00, 0.000, 0.000, 0.000, 14:24:43.731
153, 24.52, -7.59, 0.00, 0.00, 0.000, 0.000, 0.000, 14:24:43.747
154, 23.23, -5.61, 0.00, 0.00, 0.000, 0.000, 0.000, 14:24:43.747
155, 22.00, -10.03, 0.00, 0.00, 0.000, 0.000, 0.000, 14:24:43.747
156, 28.51, -12.45, 0.00, 0.00, 0.000, 0.000, 0.000, 14:24:43.747
157, 28.54, -9.78, 0.00, 0.00, 0.000, 0.000, 0.000, 14:24:43.768
158, 24.97, -5.24, 0.00, 0.00, 0.000, 0.000, 0.000, 14:24:43.769
159, 22.77, -6.14, 0.00, 0.00, 0.000, 0.000, 0.000, 14:24:43.777
160, 25.80, -9.20, 0.00, 0.00, 0.000, 0.000, 0.000, 14:24:43.777
161, 21.74, -5.88, 0.00, 0.00, 0.000, 0.000, 0.000, 14:24:43.777
162, 20.59, -3.97, 0.00, 0.00, 0.000, 0.000, 0.000, 14:24:43.777
163, 24.02, -9.39, 0.00, 0.00, 0.000, 0.000, 0.000, 14:24:43.792
164, 24.99, -10.73, 0.00, 0.00, 0.000, 0.000, 0.000, 14:24:43.792
165, 24.04, -8.05, 0.00, 0.00, 0.000, 0.000, 0.000, 14:24:43.806
166, 25.32, -5.07, 0.00, 0.00, 0.000, 0.000, 0.000, 14:24:43.807
167, 22.62, -10.09, 0.00, 0.00, 0.000, 0.000, 0.000, 14:24:43.807
168, 23.64, -12.81, 0.00, 0.00, 0.000, 0.000, 0.000, 14:24:43.807
169, 24.28, -9.27, 0.00, 0.00, 0.000, 0.000, 0.000, 14:24:43.822
170, 21.12, -8.81, 0.00, 0.00, 0.000, 0.000, 0.000, 14:24:43.822
171, 22.85, -13.39, 0.00, 0.00, 0.000, 0.000, 0.000, 14:24:43.837
172, 26.48, -14.80, 0.00, 0.00, 0.000, 0.000, 0.000, 14:24:43.837
173, 30.22, -11.11, 0.00, 0.00, 0.000, 0.000, 0.000, 14:24:43.838
174, 26.79, -10.86, 0.00, 0.00, 0.000, 0.000, 0.000, 14:24:43.838
175, 25.39, -12.11, 0.00, 0.00, 0.000, 0.000, 0.000, 14:24:43.852
176, 17.67, -6.50, 0.00, 0.00, 0.000, 0.000, 0.000, 14:24:43.852
177, 19.72, -5.66, 0.00, 0.00, 0.000, 0.000, 0.000, 14:24:43.867
178, 23.92, -8.33, 0.00, 0.00, 0.000, 0.000, 0.000, 14:24:43.867
179, 19.25, -5.88, 0.00, 0.00, 0.000, 0.000, 0.000, 14:24:43.867
180, 23.50, -10.96, 0.00, 0.00, 0.000, 0.000, 0.000, 14:24:43.869
181, 28.48, -9.96, 0.00, 0.00, 0.000, 0.000, 0.000, 14:24:43.882
182, 20.49, -7.86, 0.00, 0.00, 0.000, 0.000, 0.000, 14:24:43.882
183, 20.44, -10.30, 0.00, 0.00, 0.000, 0.000, 0.000, 14:24:43.897
184, 21.75, -10.99, 0.00, 0.00, 0.000, 0.000, 0.000, 14:24:43.897
185, 19.24, -6.38, 0.00, 0.00, 0.000, 0.000, 0.000, 14:24:43.898
186, 19.96, -7.65, 0.00, 0.00, 0.000, 0.000, 0.000, 14:24:43.898
187, 20.66, -9.90, 0.00, 0.00, 0.000, 0.000, 0.000, 14:24:43.912
188, 21.22, -12.10, 0.00, 0.00, 0.000, 0.000, 0.000, 14:24:43.912
189, 19.52, -8.34, 0.00, 0.00, 0.000, 0.000, 0.000, 14:24:43.927
190, 21.36, -8.35, 0.00, 0.00, 0.000, 0.000, 0.000, 14:24:43.927
191, 20.44, -11.05, 0.00, 0.00, 0.000, 0.000, 0.000, 14:24:43.927
192, 21.95, -11.66, 0.00, 0.00, 0.000, 0.000, 0.000, 14:24:43.927
193, 19.80, -6.28, 0.00, 0.00, 0.000, 0.000, 0.000, 14:24:43.942
194, 23.33, -9.60, 0.00, 0.00, 0.000, 0.000, 0.000, 14:24:43.942
195, 24.89, -13.88, 0.00, 0.00, 0.000, 0.000, 0.000, 14:24:43.957
196, 29.09, -8.95, 0.00, 0.00, 0.000, 0.000, 0.000, 14:24:43.957
197, 26.40, -9.32, 0.00, 0.00, 0.000, 0.000, 0.000, 14:24:43.957
198, 23.30, -4.89, 0.00, 0.00, 0.000, 0.000, 0.000, 14:24:43.957
199, 19.84, -11.66, 0.00, 0.00, 0.000, 0.000, 0.000, 14:24:43.972
200, 22.41, -9.21, 0.00, 0.00, 0.000, 0.000, 0.000, 14:24:43.972
0, 20.68, -9.71, 0.00, 0.00, 0.000, 0.000, 0.000, 14:24:43.972
1, 24.38, -12.29, 0.00, 0.00, 0.000, 0.000, 0.000, 14:24:43.986
2, 22.82, -12.88, 0.00, 0.00, 0.000, 0.000, 0.000, 14:24:43.986
3, 22.41, -14.25, 0.00, 0.00, 0.000, 0.000, 0.000, 14:24:44.002
4, 23.50, -11.39, 0.00, 0.00, 0.000, 0.000, 0.000, 14:24:44.003
5, 24.65, -9.87, 0.00, 0.00, 0.000, 0.000, 0.000, 14:24:44.003
6, 24.24, -14.63, 0.00, 0.00, 0.000, 0.000, 0.000, 14:24:44.003
7, 23.34, -11.34, 0.00, 0.00, 0.000, 0.000, 0.000, 14:24:44.017
8, 19.29, -10.23, 0.00, 0.00, 0.000, 0.000, 0.000, 14:24:44.017
9, 20.19, -9.48, 0.00, 0.00, 0.000, 0.000, 0.000, 14:24:44.032
10, 21.89, -14.20, 0.00, 0.00, 0.000, 0.000, 0.000, 14:24:44.032
11, 23.47, -11.74, 0.00, 0.00, 0.000, 0.000, 0.000, 14:24:44.032
12, 23.72, -11.49, 0.00, 0.00, 0.000, 0.000, 0.000, 14:24:44.032
13, 24.18, -9.90, 0.00, 0.00, 0.000, 0.000, 0.000, 14:24:44.047
14, 25.27, -11.60, 0.00, 0.00, 0.000, 0.000, 0.000, 14:24:44.048
15, 27.44, -12.47, 0.00, 0.00, 0.000, 0.000, 0.000, 14:24:44.062
16, 23.53, -4.46, 0.00, 0.00, 0.000, 0.000, 0.000, 14:24:44.062
17, 21.03, -6.10, 0.00, 0.00, 0.000, 0.000, 0.000, 14:24:44.063
18, 20.40, -7.24, 0.00, 0.00, 0.000, 0.000, 0.000, 14:24:44.063
19, 26.37, -13.53, 0.00, 0.00, 0.000, 0.000, 0.000, 14:24:44.077
20, 26.22, -8.83, 0.00, 0.00, 0.000, 0.000, 0.000, 14:24:44.077
21, 25.08, -8.84, 0.00, 0.00, 0.000, 0.000, 0.000, 14:24:44.091
22, 25.48, -12.64, 0.00, 0.00, 0.000, 0.000, 0.000, 14:24:44.092
23, 23.10, -8.87, 0.00, 0.00, 0.000, 0.000, 0.000, 14:24:44.092
24, 24.25, -5.77, 0.00, 0.00, 0.000, 0.000, 0.000, 14:24:44.092
25, 22.60, -4.53, 0.00, 0.00, 0.000, 0.000, 0.000, 14:24:44.107
26, 19.97, -5.10, 0.00, 0.00, 0.000, 0.000, 0.000, 14:24:44.107
27, 23.35, -6.70, 0.00, 0.00, 0.000, 0.000, 0.000, 14:24:44.122
28, 23.23, -2.65, 0.00, 0.00, 0.000, 0.000, 0.000, 14:24:44.122
29, 21.41, -4.84, 0.00, 0.00, 0.000, 0.000, 0.000, 14:24:44.123
30, 22.16, -5.22, 0.00, 0.00, 0.000, 0.000, 0.000, 14:24:44.123
31, 19.99, -7.19, 0.00, 0.00, 0.000, 0.000, 0.000, 14:24:44.137
32, 19.88, -5.60, 0.00, 0.00, 0.000, 0.000, 0.000, 14:24:44.137
33, 19.10, -5.25, 0.00, 0.00, 0.000, 0.000, 0.000, 14:24:44.151
34, 22.79, -3.51, 0.00, 0.00, 0.000, 0.000, 0.000, 14:24:44.151
35, 21.19, -7.12, 0.00, 0.00, 0.000, 0.000, 0.000, 14:24:44.152
36, 24.63, -6.66, 0.00, 0.00, 0.000, 0.000, 0.000, 14:24:44.152
37, 24.45, -7.60, 0.00, 0.00, 0.000, 0.000, 0.000, 14:24:44.182
38, 22.65, -8.98, 0.00, 0.00, 0.000, 0.000, 0.000, 14:24:44.182
39, 19.10, -4.14, 0.00, 0.00, 0.000, 0.000, 0.000, 14:24:44.182
40, 19.21, -2.85, 0.00, 0.00, 0.000, 0.000, 0.000, 14:24:44.182
41, 18.82, -2.38, 0.00, 0.00, 0.000, 0.000, 0.000, 14:24:44.184
42, 19.71, -6.54, 0.00, 0.00, 0.000, 0.000, 0.000, 14:24:44.184
43, 24.80, -7.56, 0.00, 0.00, 0.000, 0.000, 0.000, 14:24:44.197
44, 17.34, -3.18, 0.00, 0.00, 0.000, 0.000, 0.000, 14:24:44.197
45, 23.11, -4.24, 0.00, 0.00, 0.000, 0.000, 0.000, 14:24:44.212
46, 19.67, -4.67, 0.00, 0.00, 0.000, 0.000, 0.000, 14:24:44.212
47, 18.01, -5.71, 0.00, 0.00, 0.000, 0.000, 0.000, 14:24:44.212
48, 22.19, -5.43, 0.00, 0.00, 0.000, 0.000, 0.000, 14:24:44.213
49, 21.02, -1.67, 0.00, 0.00, 0.000, 0.000, 0.000, 14:24:44.226
50, 23.79, -5.68, 0.00, 0.00, 0.000, 0.000, 0.000, 14:24:44.227
51, 23.58, -9.11, 0.00, 0.00, 0.000, 0.000, 0.000, 14:24:44.242
52, 20.00, -4.87, 0.00, 0.00, 0.000, 0.000, 0.000, 14:24:44.242
53, 22.54, -5.60, 0.00, 0.00, 0.000, 0.000, 0.000, 14:24:44.242
54, 21.11, -5.65, 0.00, 0.00, 0.000, 0.000, 0.000, 14:24:44.243
55, 21.76, -10.66, 0.00, 0.00, 0.000, 0.000, 0.000, 14:24:44.257
56, 25.74, -7.30, 0.00, 0.00, 0.000, 0.000, 0.000, 14:24:44.257
57, 22.40, -8.08, 0.00, 0.00, 0.000, 0.000, 0.000, 14:24:44.272
58, 22.21, -11.02, 0.00, 0.00, 0.000, 0.000, 0.000, 14:24:44.272
59, 20.87, -11.81, 0.00, 0.00, 0.000, 0.000, 0.000, 14:24:44.272
60, 21.36, -8.66, 0.00, 0.00, 0.000, 0.000, 0.000, 14:24:44.273
61, 23.37, -8.12, 0.00, 0.00, 0.000, 0.000, 0.000, 14:24:44.287
62, 19.89, -10.16, 0.00, 0.00, 0.000, 0.000, 0.000, 14:24:44.287
63, 22.36, -9.78, 0.00, 0.00, 0.000, 0.000, 0.000, 14:24:44.302
64, 31.66, -9.10, 0.00, 0.00, 0.000, 0.000, 0.000, 14:24:44.302
65, 26.78, -9.07, 0.00, 0.00, 0.000, 0.000, 0.000, 14:24:44.302
66, 19.66, -9.15, 0.00, 0.00, 0.000, 0.000, 0.000, 14:24:44.302
67, 22.52, -15.23, 0.00, 0.00, 0.000, 0.000, 0.000, 14:24:44.317
68, 18.06, -8.97, 0.00, 0.00, 0.000, 0.000, 0.000, 14:24:44.318
69, 21.27, -7.32, 0.00, 0.00, 0.000, 0.000, 0.000, 14:24:44.331
70, 21.75, -9.31, 0.00, 0.00, 0.000, 0.000, 0.000, 14:24:44.331
71, 21.73, -7.45, 0.00, 0.00, 0.000, 0.000, 0.000, 14:24:44.332
72, 19.79, -5.97, 0.00, 0.00, 0.000, 0.000, 0.000, 14:24:44.332
73, 23.52, -7.38, 0.00, 0.00, 0.000, 0.000, 0.000, 14:24:44.347
74, 21.60, -8.33, 0.00, 0.00, 0.000, 0.000, 0.000, 14:24:44.347
75, 24.36, -7.90, 0.00, 0.00, 0.000, 0.000, 0.000, 14:24:44.362
76, 23.92, -5.63, 0.00, 0.00, 0.000, 0.000, 0.000, 14:24:44.362
77, 23.91, -7.58, 0.00, 0.00, 0.000, 0.000, 0.000, 14:24:44.362
78, 22.75, -10.82, 0.00, 0.00, 0.000, 0.000, 0.000, 14:24:44.362
79, 22.15, -7.55, 0.00, 0.00, 0.000, 0.000, 0.000, 14:24:44.377
80, 26.72, -6.70, 0.00, 0.00, 0.000, 0.000, 0.000, 14:24:44.377
81, 25.36, -6.88, 0.00, 0.00, 0.000, 0.000, 0.000, 14:24:44.394
82, 23.35, -8.05, 0.00, 0.00, 0.000, 0.000, 0.000, 14:24:44.394
83, 23.07, -6.53, 0.00, 0.00, 0.000, 0.000, 0.000, 14:24:44.394
84, 21.81, -5.12, 0.00, 0.00, 0.000, 0.000, 0.000, 14:24:44.394
85, 22.03, -5.59, 0.00, 0.00, 0.000, 0.000, 0.000, 14:24:44.414
86, 17.92, -5.72, 0.00, 0.00, 0.000, 0.000, 0.000, 14:24:44.414
87, 23.30, -9.99, 0.00, 0.00, 0.000, 0.000, 0.000, 14:24:44.421
88, 23.47, -6.91, 0.00, 0.00, 0.000, 0.000, 0.000, 14:24:44.422
89, 22.32, -4.55, 0.00, 0.00, 0.000, 0.000, 0.000, 14:24:44.422
90, 21.63, -7.28, 0.00, 0.00, 0.000, 0.000, 0.000, 14:24:44.422
91, 22.44, -8.97, 0.00, 0.00, 0.000, 0.000, 0.000, 14:24:44.437
92, 18.47, -5.08, 0.00, 0.00, 0.000, 0.000, 0.000, 14:24:44.437
93, 24.39, -3.02, 0.00, 0.00, 0.000, 0.000, 0.000, 14:24:44.452
94, 20.09, -6.57, 0.00, 0.00, 0.000, 0.000, 0.000, 14:24:44.452
95, 22.31, -6.79, 0.00, 0.00, 0.000, 0.000, 0.000, 14:24:44.452
96, 27.48, -4.75, 0.00, 0.00, 0.000, 0.000, 0.000, 14:24:44.452
97, 21.29, -3.09, 0.00, 0.00, 0.000, 0.000, 0.000, 14:24:44.467
98, 20.76, -6.84, 0.00, 0.00, 0.000, 0.000, 0.000, 14:24:44.467
99, 24.03, -6.03, 0.00, 0.00, 0.000, 0.000, 0.000, 14:24:44.482
100, 22.13, -5.05, 0.00, 0.00, 0.000, 0.000, 0.000, 14:24:44.482
101, 22.65, -5.02, 0.00, 0.00, 0.000, 0.000, 0.000, 14:24:44.483
102, 23.57, -7.36, 0.00, 0.00, 0.000, 0.000, 0.000, 14:24:44.483
103, 26.01, -7.75, 0.00, 0.00, 0.000, 0.000, 0.000, 14:24:44.497
104, 20.55, -6.27, 0.00, 0.00, 0.000, 0.000, 0.000, 14:24:44.497
105, 21.64, -4.73, 0.00, 0.00, 0.000, 0.000, 0.000, 14:24:44.512
106, 22.50, -8.28, 0.00, 0.00, 0.000, 0.000, 0.000, 14:24:44.512
107, 21.68, -8.95, 0.00, 0.00, 0.000, 0.000, 0.000, 14:24:44.512
108, 24.23, -6.58, 0.00, 0.00, 0.000, 0.000, 0.000, 14:24:44.512
109, 23.28, -3.25, 0.00, 0.00, 0.000, 0.000, 0.000, 14:24:44.527
110, 21.04, -5.43, 0.00, 0.00, 0.000, 0.000, 0.000, 14:24:44.527
111, 25.13, -7.63, 0.00, 0.00, 0.000, 0.000, 0.000, 14:24:44.542
112, 25.94, -8.11, 0.00, 0.00, 0.000, 0.000, 0.000, 14:24:44.542
113, 26.59, -6.37, 0.00, 0.00, 0.000, 0.000, 0.000, 14:24:44.542
114, 34.52, -10.95, 0.00, 0.00, 0.000, 0.000, 0.000, 14:24:44.542
115, 31.80, -9.79, 0.00, 0.00, 0.000, 0.000, 0.000, 14:24:44.557
116, 26.48, -5.85, 0.00, 0.00, 0.000, 0.000, 0.000, 14:24:44.557
117, 26.01, -4.33, 0.00, 0.00, 0.000, 0.000, 0.000, 14:24:44.572
118, 23.84, -5.33, 0.00, 0.00, 0.000, 0.000, 0.000, 14:24:44.572
119, 19.65, -1.94, 0.00, 0.00, 0.000, 0.000, 0.000, 14:24:44.572
120, 22.05, -2.39, 0.00, 0.00, 0.000, 0.000, 0.000, 14:24:44.572
121, 21.24, -5.57, 0.00, 0.00, 0.000, 0.000, 0.000, 14:24:44.586
122, 20.68, -6.15, 0.00, 0.00, 0.000, 0.000, 0.000, 14:24:44.586
123, 24.29, -8.12, 0.00, 0.00, 0.000, 0.000, 0.000, 14:24:44.602
124, 24.00, -5.53, 0.00, 0.00, 0.000, 0.000, 0.000, 14:24:44.602
125, 20.95, -5.26, 0.00, 0.00, 0.000, 0.000, 0.000, 14:24:44.602
126, 24.25, -8.76, 0.00, 0.00, 0.000, 0.000, 0.000, 14:24:44.602
127, 23.24, -8.95, 0.00, 0.00, 0.000, 0.000, 0.000, 14:24:44.617
128, 19.73, -6.97, 0.00, 0.00, 0.000, 0.000, 0.000, 14:24:44.617
129, 21.59, -3.95, 0.00, 0.00, 0.000, 0.000, 0.000, 14:24:44.632
130, 22.25, -5.79, 0.00, 0.00, 0.000, 0.000, 0.000, 14:24:44.632
131, 24.30, -8.84, 0.00, 0.00, 0.000, 0.000, 0.000, 14:24:44.632
132, 18.85, -3.57, 0.00, 0.00, 0.000, 0.000, 0.000, 14:24:44.632
133, 21.34, -3.52, 0.00, 0.00, 0.000, 0.000, 0.000, 14:24:44.647
134, 17.94, -6.72, 0.00, 0.00, 0.000, 0.000, 0.000, 14:24:44.647
135, 16.96, -5.45, 0.00, 0.00, 0.000, 0.000, 0.000, 14:24:44.662
136, 21.06, -2.17, 0.00, 0.00, 0.000, 0.000, 0.000, 14:24:44.662
137, 20.56, -2.25, 0.00, 0.00, 0.000, 0.000, 0.000, 14:24:44.663
138, 23.75, -4.96, 0.00, 0.00, 0.000, 0.000, 0.000, 14:24:44.663
139, 23.85, -9.21, 0.00, 0.00, 0.000, 0.000, 0.000, 14:24:44.677
140, 23.35, -5.13, 0.00, 0.00, 0.000, 0.000, 0.000, 14:24:44.677
141, 24.04, -5.63, 0.00, 0.00, 0.000, 0.000, 0.000, 14:24:44.691
142, 25.74, -8.59, 0.00, 0.00, 0.000, 0.000, 0.000, 14:24:44.692
143, 25.63, -6.95, 0.00, 0.00, 0.000, 0.000, 0.000, 14:24:44.699
144, 21.00, -4.84, 0.00, 0.00, 0.000, 0.000, 0.000, 14:24:44.699
145, 22.61, -5.73, 0.00, 0.00, 0.000, 0.000, 0.000, 14:24:44.707
146, 17.69, -2.95, 0.00, 0.00, 0.000, 0.000, 0.000, 14:24:44.707
147, 18.79, -5.05, 0.00, 0.00, 0.000, 0.000, 0.000, 14:24:44.722
148, 19.66, -0.56, 0.00, 0.00, 0.000, 0.000, 0.000, 14:24:44.722
149, 19.15, -3.12, 0.00, 0.00, 0.000, 0.000, 0.000, 14:24:44.722
150, 16.55, -3.46, 0.00, 0.00, 0.000, 0.000, 0.000, 14:24:44.722
151, 17.08, -4.93, 0.00, 0.00, 0.000, 0.000, 0.000, 14:24:44.736
152, 18.28, -4.40, 0.00, 0.00, 0.000, 0.000, 0.000, 14:24:44.737
153, 22.98, -3.82, 0.00, 0.00, 0.000, 0.000, 0.000, 14:24:44.751
154, 21.10, -2.48, 0.00, 0.00, 0.000, 0.000, 0.000, 14:24:44.751
155, 19.94, -5.60, 0.00, 0.00, 0.000, 0.000, 0.000, 14:24:44.752
156, 23.92, -5.56, 0.00, 0.00, 0.000, 0.000, 0.000, 14:24:44.752
157, 25.28, -4.85, 0.00, 0.00, 0.000, 0.000, 0.000, 14:24:44.767
158, 21.84, -2.99, 0.00, 0.00, 0.000, 0.000, 0.000, 14:24:44.767
159, 18.74, -4.24, 0.00, 0.00, 0.000, 0.000, 0.000, 14:24:44.781
160, 21.17, -1.73, 0.00, 0.00, 0.000, 0.000, 0.000, 14:24:44.782
161, 26.90, -3.56, 0.00, 0.00, 0.000, 0.000, 0.000, 14:24:44.782
162, 19.94, -0.03, 0.00, 0.00, 0.000, 0.000, 0.000, 14:24:44.782
163, 19.61, -2.41, 0.00, 0.00, 0.000, 0.000, 0.000, 14:24:44.797
164, 18.32, -4.07, 0.00, 0.00, 0.000, 0.000, 0.000, 14:24:44.797
165, 20.81, 1.56, 0.00, 0.00, 0.000, 0.000, 0.000, 14:24:44.812
166, 20.70, -2.46, 0.00, 0.00, 0.000, 0.000, 0.000, 14:24:44.812
167, 18.15, -3.61, 0.00, 0.00, 0.000, 0.000, 0.000, 14:24:44.812
168, 21.26, -6.26, 0.00, 0.00, 0.000, 0.000, 0.000, 14:24:44.812
169, 21.57, -4.73, 0.00, 0.00, 0.000, 0.000, 0.000, 14:24:44.827
170, 21.70, -6.29, 0.00, 0.00, 0.000, 0.000, 0.000, 14:24:44.827
171, 22.62, -5.26, 0.00, 0.00, 0.000, 0.000, 0.000, 14:24:44.842
172, 19.79, -4.95, 0.00, 0.00, 0.000, 0.000, 0.000, 14:24:44.842
173, 21.93, -0.79, 0.00, 0.00, 0.000, 0.000, 0.000, 14:24:44.843
174, 19.73, -4.95, 0.00, 0.00, 0.000, 0.000, 0.000, 14:24:44.843
175, 20.92, -4.67, 0.00, 0.00, 0.000, 0.000, 0.000, 14:24:44.857
176, 18.33, -2.57, 0.00, 0.00, 0.000, 0.000, 0.000, 14:24:44.857
177, 19.12, -5.64, 0.00, 0.00, 0.000, 0.000, 0.000, 14:24:44.874
178, 21.27, -3.91, 0.00, 0.00, 0.000, 0.000, 0.000, 14:24:44.874
179, 16.83, -6.53, 0.00, 0.00, 0.000, 0.000, 0.000, 14:24:44.874
180, 19.12, -5.09, 0.00, 0.00, 0.000, 0.000, 0.000, 14:24:44.874
181, 20.48, -5.45, 0.00, 0.00, 0.000, 0.000, 0.000, 14:24:44.888
182, 20.90, -6.39, 0.00, 0.00, 0.000, 0.000, 0.000, 14:24:44.888
183, 18.71, -4.52, 0.00, 0.00, 0.000, 0.000, 0.000, 14:24:44.902
184, 19.82, -3.57, 0.00, 0.00, 0.000, 0.000, 0.000, 14:24:44.902
185, 19.75, -8.16, 0.00, 0.00, 0.000, 0.000, 0.000, 14:24:44.903
186, 19.15, -7.82, 0.00, 0.00, 0.000, 0.000, 0.000, 14:24:44.903
187, 20.04, -7.07, 0.00, 0.00, 0.000, 0.000, 0.000, 14:24:44.916
188, 18.76, -4.59, 0.00, 0.00, 0.000, 0.000, 0.000, 14:24:44.917
189, 20.39, -2.84, 0.00, 0.00, 0.000, 0.000, 0.000, 14:24:44.932
190, 21.27, -8.90, 0.00, 0.00, 0.000, 0.000, 0.000, 14:24:44.932
191, 18.84, -7.68, 0.00, 0.00, 0.000, 0.000, 0.000, 14:24:44.933
192, 23.02, -3.80, 0.00, 0.00, 0.000, 0.000, 0.000, 14:24:44.933
193, 21.50, -6.00, 0.00, 0.00, 0.000, 0.000, 0.000, 14:24:44.947
194, 21.39, -8.21, 0.00, 0.00, 0.000, 0.000, 0.000, 14:24:44.947
195, 24.32, -8.67, 0.00, 0.00, 0.000, 0.000, 0.000, 14:24:44.962
196, 27.57, -8.70, 0.00, 0.00, 0.000, 0.000, 0.000, 14:24:44.962
197, 22.15, -10.48, 0.00, 0.00, 0.000, 0.000, 0.000, 14:24:44.962
198, 26.90, -13.76, 0.00, 0.00, 0.000, 0.000, 0.000, 14:24:44.962
199, 22.70, -12.84, 0.00, 0.00, 0.000, 0.000, 0.000, 14:24:44.977
200, 16.06, -5.00, 0.00, 0.00, 0.000, 0.000, 0.000, 14:24:44.977
0, 18.31, -3.90, 0.00, 0.00, 0.000, 0.000, 0.000, 14:24:44.977
1, 17.49, -11.36, 0.00, 0.00, 0.000, 0.000, 0.000, 14:24:44.992
2, 19.43, -12.09, 0.00, 0.00, 0.000, 0.000, 0.000, 14:24:44.992
3, 21.90, -8.99, 0.00, 0.00, 0.000, 0.000, 0.000, 14:24:45.007
4, 20.04, -11.55, 0.00, 0.00, 0.000, 0.000, 0.000, 14:24:45.007
5, 21.09, -10.84, 0.00, 0.00, 0.000, 0.000, 0.000, 14:24:45.007
6, 20.07, -9.72, 0.00, 0.00, 0.000, 0.000, 0.000, 14:24:45.007
7, 22.10, -9.79, 0.00, 0.00, 0.000, 0.000, 0.000, 14:24:45.022
8, 19.40, -9.62, 0.00, 0.00, 0.000, 0.000, 0.000, 14:24:45.022
9, 23.69, -13.66, 0.00, 0.00, 0.000, 0.000, 0.000, 14:24:45.052
10, 28.55, -14.43, 0.00, 0.00, 0.000, 0.000, 0.000, 14:24:45.052
11, 24.65, -10.71, 0.00, 0.00, 0.000, 0.000, 0.000, 14:24:45.052
12, 20.94, -10.01, 0.00, 0.00, 0.000, 0.000, 0.000, 14:24:45.052
13, 19.67, -12.51, 0.00, 0.00, 0.000, 0.000, 0.000, 14:24:45.053
14, 21.06, -11.35, 0.00, 0.00, 0.000, 0.000, 0.000, 14:24:45.053
15, 20.56, -8.61, 0.00, 0.00, 0.000, 0.000, 0.000, 14:24:45.054
16, 22.44, -7.76, 0.00, 0.00, 0.000, 0.000, 0.000, 14:24:45.054
17, 23.10, -14.35, 0.00, 0.00, 0.000, 0.000, 0.000, 14:24:45.067
18, 27.90, -14.45, 0.00, 0.00, 0.000, 0.000, 0.000, 14:24:45.067
19, 29.92, -11.08, 0.00, 0.00, 0.000, 0.000, 0.000, 14:24:45.082
20, 24.90, -8.22, 0.00, 0.00, 0.000, 0.000, 0.000, 14:24:45.082
21, 20.14, -10.93, 0.00, 0.00, 0.000, 0.000, 0.000, 14:24:45.097
22, 19.86, -11.49, 0.00, 0.00, 0.000, 0.000, 0.000, 14:24:45.097
23, 17.08, -7.86, 0.00, 0.00, 0.000, 0.000, 0.000, 14:24:45.104
24, 21.42, -8.17, 0.00, 0.00, 0.000, 0.000, 0.000, 14:24:45.104
25, 24.00, -7.77, 0.00, 0.00, 0.000, 0.000, 0.000, 14:24:45.112
26, 18.94, -9.84, 0.00, 0.00, 0.000, 0.000, 0.000, 14:24:45.112
27, 25.27, -4.25, 0.00, 0.00, 0.000, 0.000, 0.000, 14:24:45.126
28, 23.43, -9.53, 0.00, 0.00, 0.000, 0.000, 0.000, 14:24:45.126
29, 23.08, -9.35, 0.00, 0.00, 0.000, 0.000, 0.000, 14:24:45.128
30, 23.41, -11.82, 0.00, 0.00, 0.000, 0.000, 0.000, 14:24:45.128
31, 29.06, -14.12, 0.00, 0.00, 0.000, 0.000, 0.000, 14:24:45.142
32, 25.15, -11.27, 0.00, 0.00, 0.000, 0.000, 0.000, 14:24:45.143
33, 31.40, -16.06, 0.00, 0.00, 0.000, 0.000, 0.000, 14:24:45.157
34, 26.57, -14.33, 0.00, 0.00, 0.000, 0.000, 0.000, 14:24:45.157
35, 23.79, -9.86, 0.00, 0.00, 0.000, 0.000, 0.000, 14:24:45.157
36, 22.42, -7.87, 0.00, 0.00, 0.000, 0.000, 0.000, 14:24:45.157
37, 18.84, -11.25, 0.00, 0.00, 0.000, 0.000, 0.000, 14:24:45.172
38, 18.72, -7.59, 0.00, 0.00, 0.000, 0.000, 0.000, 14:24:45.172
39, 21.02, -7.70, 0.00, 0.00, 0.000, 0.000, 0.000, 14:24:45.186
40, 22.13, -4.42, 0.00, 0.00, 0.000, 0.000, 0.000, 14:24:45.186
41, 20.35, -6.68, 0.00, 0.00, 0.000, 0.000, 0.000, 14:24:45.187
42, 22.79, -8.72, 0.00, 0.00, 0.000, 0.000, 0.000, 14:24:45.187
43, 24.39, -9.03, 0.00, 0.00, 0.000, 0.000, 0.000, 14:24:45.202
44, 25.23, -7.23, 0.00, 0.00, 0.000, 0.000, 0.000, 14:24:45.202
45, 27.27, -6.53, 0.00, 0.00, 0.000, 0.000, 0.000, 14:24:45.217
46, 24.51, -5.85, 0.00, 0.00, 0.000, 0.000, 0.000, 14:24:45.217
47, 20.61, -1.31, 0.00, 0.00, 0.000, 0.000, 0.000, 14:24:45.217
48, 20.55, -3.52, 0.00, 0.00, 0.000, 0.000, 0.000, 14:24:45.217
49, 20.37, -3.47, 0.00, 0.00, 0.000, 0.000, 0.000, 14:24:45.231
50, 18.32, -6.12, 0.00, 0.00, 0.000, 0.000, 0.000, 14:24:45.232
51, 21.07, -1.45, 0.00, 0.00, 0.000, 0.000, 0.000, 14:24:45.247
52, 22.95, -4.41, 0.00, 0.00, 0.000, 0.000, 0.000, 14:24:45.247
53, 23.07, -5.70, 0.00, 0.00, 0.000, 0.000, 0.000, 14:24:45.248
54, 22.79, -10.49, 0.00, 0.00, 0.000, 0.000, 0.000, 14:24:45.248
55, 23.20, -7.92, 0.00, 0.00, 0.000, 0.000, 0.000, 14:24:45.262
56, 24.29, -7.48, 0.00, 0.00, 0.000, 0.000, 0.000, 14:24:45.262
57, 29.96, -9.53, 0.00, 0.00, 0.000, 0.000, 0.000, 14:24:45.277
58, 30.02, -12.56, 0.00, 0.00, 0.000, 0.000, 0.000, 14:24:45.277
59, 23.07, -8.86, 0.00, 0.00, 0.000, 0.000, 0.000, 14:24:45.278
60, 22.87, -4.32, 0.00, 0.00, 0.000, 0.000, 0.000, 14:24:45.278
61, 21.96, -8.49, 0.00, 0.00, 0.000, 0.000, 0.000, 14:24:45.292
62, 18.78, -8.38, 0.00, 0.00, 0.000, 0.000, 0.000, 14:24:45.292
63, 21.50, -4.91, 0.00, 0.00, 0.000, 0.000, 0.000, 14:24:45.307
64, 19.90, -6.94, 0.00, 0.00, 0.000, 0.000, 0.000, 14:24:45.307
65, 18.29, -6.48, 0.00, 0.00, 0.000, 0.000, 0.000, 14:24:45.307
66, 20.24, -8.37, 0.00, 0.00, 0.000, 0.000, 0.000, 14:24:45.308
67, 22.42, -7.50, 0.00, 0.00, 0.000, 0.000, 0.000, 14:24:45.322
68, 18.42, -3.26, 0.00, 0.00, 0.000, 0.000, 0.000, 14:24:45.322
69, 21.11, -6.54, 0.00, 0.00, 0.000, 0.000, 0.000, 14:24:45.337
70, 23.56, -6.64, 0.00, 0.00, 0.000, 0.000, 0.000, 14:24:45.337
71, 21.72, -4.06, 0.00, 0.00, 0.000, 0.000, 0.000, 14:24:45.337
72, 25.58, -7.70, 0.00, 0.00, 0.000, 0.000, 0.000, 14:24:45.337
73, 26.43, -11.50, 0.00, 0.00, 0.000, 0.000, 0.000, 14:24:45.352
74, 22.04, -7.98, 0.00, 0.00, 0.000, 0.000, 0.000, 14:24:45.352
75, 21.54, -8.42, 0.00, 0.00, 0.000, 0.000, 0.000, 14:24:45.367
76, 20.98, -7.60, 0.00, 0.00, 0.000, 0.000, 0.000, 14:24:45.367
77, 20.30, -9.00, 0.00, 0.00, 0.000, 0.000, 0.000, 14:24:45.367
78, 23.38, -9.04, 0.00, 0.00, 0.000, 0.000, 0.000, 14:24:45.367
79, 21.64, -8.02, 0.00, 0.00, 0.000, 0.000, 0.000, 14:24:45.382
80, 19.36, -7.74, 0.00, 0.00, 0.000, 0.000, 0.000, 14:24:45.382
81, 25.81, -14.84, 0.00, 0.00, 0.000, 0.000, 0.000, 14:24:45.397
82, 23.61, -6.98, 0.00, 0.00, 0.000, 0.000, 0.000, 14:24:45.397
83, 26.31, -7.12, 0.00, 0.00, 0.000, 0.000, 0.000, 14:24:45.404
84, 19.81, -4.26, 0.00, 0.00, 0.000, 0.000, 0.000, 14:24:45.404
85, 19.21, -10.74, 0.00, 0.00, 0.000, 0.000, 0.000, 14:24:45.412
86, 17.57, -11.69, 0.00, 0.00, 0.000, 0.000, 0.000, 14:24:45.412
87, 23.55, -9.95, 0.00, 0.00, 0.000, 0.000, 0.000, 14:24:45.426
88, 23.09, -8.32, 0.00, 0.00, 0.000, 0.000, 0.000, 14:24:45.426
89, 22.97, -9.13, 0.00, 0.00, 0.000, 0.000, 0.000, 14:24:45.427
90, 25.32, -8.63, 0.00, 0.00, 0.000, 0.000, 0.000, 14:24:45.427
91, 26.53, -7.74, 0.00, 0.00, 0.000, 0.000, 0.000, 14:24:45.442
92, 27.11, -7.85, 0.00, 0.00, 0.000, 0.000, 0.000, 14:24:45.442
93, 23.61, -8.01, 0.00, 0.00, 0.000, 0.000, 0.000, 14:24:45.457
94, 24.76, -4.70, 0.00, 0.00, 0.000, 0.000, 0.000, 14:24:45.457
95, 20.44, -5.69, 0.00, 0.00, 0.000, 0.000, 0.000, 14:24:45.457
96, 19.78, -3.56, 0.00, 0.00, 0.000, 0.000, 0.000, 14:24:45.457
97, 24.39, -9.96, 0.00, 0.00, 0.000, 0.000, 0.000, 14:24:45.472
98, 24.51, -6.87, 0.00, 0.00, 0.000, 0.000, 0.000, 14:24:45.472
99, 22.88, -5.27, 0.00, 0.00, 0.000, 0.000, 0.000, 14:24:45.487
100, 23.35, -4.08, 0.00, 0.00, 0.000, 0.000, 0.000, 14:24:45.487
101, 20.71, -5.77, 0.00, 0.00, 0.000, 0.000, 0.000, 14:24:45.487
102, 22.47, -6.56, 0.00, 0.00, 0.000, 0.000, 0.000, 14:24:45.487
103, 21.07, -3.13, 0.00, 0.00, 0.000, 0.000, 0.000, 14:24:45.502
104, 19.92, -6.32, 0.00, 0.00, 0.000, 0.000, 0.000, 14:24:45.502
105, 22.59, -6.22, 0.00, 0.00, 0.000, 0.000, 0.000, 14:24:45.516
106, 24.01, -7.76, 0.00, 0.00, 0.000, 0.000, 0.000, 14:24:45.516
107, 24.75, -6.65, 0.00, 0.00, 0.000, 0.000, 0.000, 14:24:45.517
108, 20.66, -0.36, 0.00, 0.00, 0.000, 0.000, 0.000, 14:24:45.517
109, 19.69, -4.73, 0.00, 0.00, 0.000, 0.000, 0.000, 14:24:45.531
110, 19.11, -8.85, 0.00, 0.00, 0.000, 0.000, 0.000, 14:24:45.531
111, 23.00, -5.94, 0.00, 0.00, 0.000, 0.000, 0.000, 14:24:45.547
112, 19.19, -5.15, 0.00, 0.00, 0.000, 0.000, 0.000, 14:24:45.547
113, 20.52, -8.54, 0.00, 0.00, 0.000, 0.000, 0.000, 14:24:45.547
114, 22.16, -6.86, 0.00, 0.00, 0.000, 0.000, 0.000, 14:24:45.547
115, 18.49, -6.29, 0.00, 0.00, 0.000, 0.000, 0.000, 14:24:45.562
116, 17.13, -6.51, 0.00, 0.00, 0.000, 0.000, 0.000, 14:24:45.562
117, 21.65, -9.32, 0.00, 0.00, 0.000, 0.000, 0.000, 14:24:45.577
118, 23.58, -7.33, 0.00, 0.00, 0.000, 0.000, 0.000, 14:24:45.577
119, 18.86, -6.20, 0.00, 0.00, 0.000, 0.000, 0.000, 14:24:45.577
120, 22.15, -7.96, 0.00, 0.00, 0.000, 0.000, 0.000, 14:24:45.577
121, 21.07, -12.37, 0.00, 0.00, 0.000, 0.000, 0.000, 14:24:45.592
122, 21.08, -10.70, 0.00, 0.00, 0.000, 0.000, 0.000, 14:24:45.592
123, 23.74, -7.75, 0.00, 0.00, 0.000, 0.000, 0.000, 14:24:45.607
124, 23.83, -8.43, 0.00, 0.00, 0.000, 0.000, 0.000, 14:24:45.607
125, 22.32, -8.34, 0.00, 0.00, 0.000, 0.000, 0.000, 14:24:45.607
126, 22.72, -9.35, 0.00, 0.00, 0.000, 0.000, 0.000, 14:24:45.608
127, 21.41, -8.11, 0.00, 0.00, 0.000, 0.000, 0.000, 14:24:45.622
128, 20.94, -6.62, 0.00, 0.00, 0.000, 0.000, 0.000, 14:24:45.622
129, 26.07, -8.96, 0.00, 0.00, 0.000, 0.000, 0.000, 14:24:45.637
130, 23.14, -5.99, 0.00, 0.00, 0.000, 0.000, 0.000, 14:24:45.637
131, 24.09, -6.36, 0.00, 0.00, 0.000, 0.000, 0.000, 14:24:45.637
132, 23.23, -6.01, 0.00, 0.00, 0.000, 0.000, 0.000, 14:24:45.637
133, 24.71, -9.63, 0.00, 0.00, 0.000, 0.000, 0.000, 14:24:45.652
134, 22.86, -6.47, 0.00, 0.00, 0.000, 0.000, 0.000, 14:24:45.652
135, 24.69, -6.54, 0.00, 0.00, 0.000, 0.000, 0.000, 14:24:45.667
136, 25.51, -5.97, 0.00, 0.00, 0.000, 0.000, 0.000, 14:24:45.667
137, 21.69, -6.63, 0.00, 0.00, 0.000, 0.000, 0.000, 14:24:45.667
138, 23.03, -5.50, 0.00, 0.00, 0.000, 0.000, 0.000, 14:24:45.667
139, 25.40, -3.59, 0.00, 0.00, 0.000, 0.000, 0.000, 14:24:45.682
140, 24.34, -5.49, 0.00, 0.00, 0.000, 0.000, 0.000, 14:24:45.682
141, 27.77, -7.94, 0.00, 0.00, 0.000, 0.000, 0.000, 14:24:45.697
142, 29.05, -9.27, 0.00, 0.00, 0.000, 0.000, 0.000, 14:24:45.697
143, 22.22, -4.59, 0.00, 0.00, 0.000, 0.000, 0.000, 14:24:45.698
144, 22.27, -3.22, 0.00, 0.00, 0.000, 0.000, 0.000, 14:24:45.698
145, 24.32, -6.67, 0.00, 0.00, 0.000, 0.000, 0.000, 14:24:45.712
146, 22.28, -4.81, 0.00, 0.00, 0.000, 0.000, 0.000, 14:24:45.712
147, 21.22, -3.52, 0.00, 0.00, 0.000, 0.000, 0.000, 14:24:45.726
148, 20.85, -1.82, 0.00, 0.00, 0.000, 0.000, 0.000, 14:24:45.726
149, 20.47, -6.57, 0.00, 0.00, 0.000, 0.000, 0.000, 14:24:45.727
150, 21.53, -5.92, 0.00, 0.00, 0.000, 0.000, 0.000, 14:24:45.727
151, 20.81, -3.27, 0.00, 0.00, 0.000, 0.000, 0.000, 14:24:45.742
152, 20.76, -4.44, 0.00, 0.00, 0.000, 0.000, 0.000, 14:24:45.742
153, 22.35, -6.17, 0.00, 0.00, 0.000, 0.000, 0.000, 14:24:45.757
154, 18.50, -4.67, 0.00, 0.00, 0.000, 0.000, 0.000, 14:24:45.757
155, 21.81, -6.50, 0.00, 0.00, 0.000, 0.000, 0.000, 14:24:45.757
156, 21.84, -5.86, 0.00, 0.00, 0.000, 0.000, 0.000, 14:24:45.757
157, 22.50, -4.53, 0.00, 0.00, 0.000, 0.000, 0.000, 14:24:45.779
158, 21.21, -9.17, 0.00, 0.00, 0.000, 0.000, 0.000, 14:24:45.779
159, 22.80, -5.91, 0.00, 0.00, 0.000, 0.000, 0.000, 14:24:45.787
160, 23.31, -4.38, 0.00, 0.00, 0.000, 0.000, 0.000, 14:24:45.787
161, 20.85, -8.25, 0.00, 0.00, 0.000, 0.000, 0.000, 14:24:45.787
162, 20.74, -8.17, 0.00, 0.00, 0.000, 0.000, 0.000, 14:24:45.787
163, 24.12, -3.86, 0.00, 0.00, 0.000, 0.000, 0.000, 14:24:45.802
164, 20.07, -4.91, 0.00, 0.00, 0.000, 0.000, 0.000, 14:24:45.802
165, 22.12, -4.66, 0.00, 0.00, 0.000, 0.000, 0.000, 14:24:45.817
166, 20.86, -6.98, 0.00, 0.00, 0.000, 0.000, 0.000, 14:24:45.817
167, 23.41, -2.98, 0.00, 0.00, 0.000, 0.000, 0.000, 14:24:45.818
168, 25.26, -4.43, 0.00, 0.00, 0.000, 0.000, 0.000, 14:24:45.818
169, 25.50, -7.24, 0.00, 0.00, 0.000, 0.000, 0.000, 14:24:45.832
170, 20.38, -6.98, 0.00, 0.00, 0.000, 0.000, 0.000, 14:24:45.832
171, 23.76, -2.05, 0.00, 0.00, 0.000, 0.000, 0.000, 14:24:45.847
172, 20.73, -5.09, 0.00, 0.00, 0.000, 0.000, 0.000, 14:24:45.847
173, 23.87, -8.46, 0.00, 0.00, 0.000, 0.000, 0.000, 14:24:45.847
174, 24.18, -8.10, 0.00, 0.00, 0.000, 0.000, 0.000, 14:24:45.847
175, 28.85, -5.58, 0.00, 0.00, 0.000, 0.000, 0.000, 14:24:45.863
176, 20.38, -5.82, 0.00, 0.00, 0.000, 0.000, 0.000, 14:24:45.863
177, 25.95, -6.78, 0.00, 0.00, 0.000, 0.000, 0.000, 14:24:45.877
178, 26.64, -9.79, 0.00, 0.00, 0.000, 0.000, 0.000, 14:24:45.877
179, 24.30, -7.38, 0.00, 0.00, 0.000, 0.000, 0.000, 14:24:45.878
180, 23.58, -3.64, 0.00, 0.00, 0.000, 0.000, 0.000, 14:24:45.878
181, 17.41, -6.28, 0.00, 0.00, 0.000, 0.000, 0.000, 14:24:45.893
182, 21.17, -7.49, 0.00, 0.00, 0.000, 0.000, 0.000, 14:24:45.893
183, 21.68, 0.05, 0.00, 0.00, 0.000, 0.000, 0.000, 14:24:45.907
184, 19.70, -2.68, 0.00, 0.00, 0.000, 0.000, 0.000, 14:24:45.907
185, 21.71, -3.75, 0.00, 0.00, 0.000, 0.000, 0.000, 14:24:45.907
186, 21.31, -3.92, 0.00, 0.00, 0.000, 0.000, 0.000, 14:24:45.907
187, 21.48, -4.67, 0.00, 0.00, 0.000, 0.000, 0.000, 14:24:45.922
188, 22.25, -4.82, 0.00, 0.00, 0.000, 0.000, 0.000, 14:24:45.922
189, 24.22, -5.63, 0.00, 0.00, 0.000, 0.000, 0.000, 14:24:45.937
190, 21.55, -5.09, 0.00, 0.00, 0.000, 0.000, 0.000, 14:24:45.937
191, 22.57, -5.09, 0.00, 0.00, 0.000, 0.000, 0.000, 14:24:45.938
192, 24.27, -3.24, 0.00, 0.00, 0.000, 0.000, 0.000, 14:24:45.938
193, 22.46, -6.00, 0.00, 0.00, 0.000, 0.000, 0.000, 14:24:45.952
194, 21.83, -4.80, 0.00, 0.00, 0.000, 0.000, 0.000, 14:24:45.952
195, 23.23, -4.09, 0.00, 0.00, 0.000, 0.000, 0.000, 14:24:45.967
196, 31.89, -7.01, 0.00, 0.00, 0.000, 0.000, 0.000, 14:24:45.967
197, 27.80, -5.83, 0.00, 0.00, 0.000, 0.000, 0.000, 14:24:45.967
198, 22.15, -5.43, 0.00, 0.00, 0.000, 0.000, 0.000, 14:24:45.967
199, 23.92, -3.31, 0.00, 0.00, 0.000, 0.000, 0.000, 14:24:45.981
200, 24.38, -2.91, 0.00, 0.00, 0.000, 0.000, 0.000, 14:24:45.981
0, 21.99, -6.06, 0.00, 0.00, 0.000, 0.000, 0.000, 14:24:45.982
1, 29.14, -4.71, 0.00, 0.00, 0.000, 0.000, 0.000, 14:24:45.996
2, 23.51, -4.27, 0.00, 0.00, 0.000, 0.000, 0.000, 14:24:45.996
3, 20.59, -1.29, 0.00, 0.00, 0.000, 0.000, 0.000, 14:24:46.012
4, 23.10, -4.31, 0.00, 0.00, 0.000, 0.000, 0.000, 14:24:46.012
5, 21.86, -5.11, 0.00, 0.00, 0.000, 0.000, 0.000, 14:24:46.012
6, 26.39, -0.44, 0.00, 0.00, 0.000, 0.000, 0.000, 14:24:46.012
7, 26.31, -2.49, 0.00, 0.00, 0.000, 0.000, 0.000, 14:24:46.027
8, 23.32, -2.04, 0.00, 0.00, 0.000, 0.000, 0.000, 14:24:46.027
9, 21.95, -1.02, 0.00, 0.00, 0.000, 0.000, 0.000, 14:24:46.042
10, 20.32, 0.69, 0.00, 0.00, 0.000, 0.000, 0.000, 14:24:46.042
11, 18.90, 0.49, 0.00, 0.00, 0.000, 0.000, 0.000, 14:24:46.042
12, 21.02, -2.01, 0.00, 0.00, 0.000, 0.000, 0.000, 14:24:46.042
13, 20.26, -2.65, 0.00, 0.00, 0.000, 0.000, 0.000, 14:24:46.057
14, 19.94, 0.01, 0.00, 0.00, 0.000, 0.000, 0.000, 14:24:46.057
15, 24.20, -1.52, 0.00, 0.00, 0.000, 0.000, 0.000, 14:24:46.072
16, 23.45, -2.08, 0.00, 0.00, 0.000, 0.000, 0.000, 14:24:46.072
17, 21.25, -0.36, 0.00, 0.00, 0.000, 0.000, 0.000, 14:24:46.072
18, 21.85, 2.06, 0.00, 0.00, 0.000, 0.000, 0.000, 14:24:46.072
19, 22.17, -0.55, 0.00, 0.00, 0.000, 0.000, 0.000, 14:24:46.087
20, 21.55, 2.30, 0.00, 0.00, 0.000, 0.000, 0.000, 14:24:46.087
21, 23.00, -3.41, 0.00, 0.00, 0.000, 0.000, 0.000, 14:24:46.102
22, 22.50, -0.46, 0.00, 0.00, 0.000, 0.000, 0.000, 14:24:46.103
23, 21.68, 0.56, 0.00, 0.00, 0.000, 0.000, 0.000, 14:24:46.109
24, 17.95, -0.64, 0.00, 0.00, 0.000, 0.000, 0.000, 14:24:46.109
25, 22.26, -4.57, 0.00, 0.00, 0.000, 0.000, 0.000, 14:24:46.117
26, 21.21, -0.97, 0.00, 0.00, 0.000, 0.000, 0.000, 14:24:46.117
27, 21.81, -3.20, 0.00, 0.00, 0.000, 0.000, 0.000, 14:24:46.131
28, 19.85, -4.65, 0.00, 0.00, 0.000, 0.000, 0.000, 14:24:46.131
29, 19.86, -1.85, 0.00, 0.00, 0.000, 0.000, 0.000, 14:24:46.133
30, 22.72, -5.18, 0.00, 0.00, 0.000, 0.000, 0.000, 14:24:46.133
31, 20.46, -0.32, 0.00, 0.00, 0.000, 0.000, 0.000, 14:24:46.147
32, 18.10, 0.12, 0.00, 0.00, 0.000, 0.000, 0.000, 14:24:46.147
33, 18.47, -1.56, 0.00, 0.00, 0.000, 0.000, 0.000, 14:24:46.162
34, 21.58, -1.45, 0.00, 0.00, 0.000, 0.000, 0.000, 14:24:46.162
35, 17.82, -2.17, 0.00, 0.00, 0.000, 0.000, 0.000, 14:24:46.162
36, 20.42, -2.32, 0.00, 0.00, 0.000, 0.000, 0.000, 14:24:46.162
37, 21.30, -5.74, 0.00, 0.00, 0.000, 0.000, 0.000, 14:24:46.177
38, 19.45, -2.29, 0.00, 0.00, 0.000, 0.000, 0.000, 14:24:46.177
39, 22.68, -3.93, 0.00, 0.00, 0.000, 0.000, 0.000, 14:24:46.192
40, 22.61, -3.53, 0.00, 0.00, 0.000, 0.000, 0.000, 14:24:46.192
41, 22.03, -2.79, 0.00, 0.00, 0.000, 0.000, 0.000, 14:24:46.192
42, 23.54, -3.03, 0.00, 0.00, 0.000, 0.000, 0.000, 14:24:46.192
43, 24.27, -2.18, 0.00, 0.00, 0.000, 0.000, 0.000, 14:24:46.207
44, 23.21, -4.87, 0.00, 0.00, 0.000, 0.000, 0.000, 14:24:46.207
45, 20.79, -2.03, 0.00, 0.00, 0.000, 0.000, 0.000, 14:24:46.222
46, 23.16, -2.98, 0.00, 0.00, 0.000, 0.000, 0.000, 14:24:46.222
47, 22.56, -1.44, 0.00, 0.00, 0.000, 0.000, 0.000, 14:24:46.222
48, 19.13, -5.80, 0.00, 0.00, 0.000, 0.000, 0.000, 14:24:46.222
49, 17.73, -3.58, 0.00, 0.00, 0.000, 0.000, 0.000, 14:24:46.237
50, 19.28, -2.37, 0.00, 0.00, 0.000, 0.000, 0.000, 14:24:46.237
51, 21.48, -2.70, 0.00, 0.00, 0.000, 0.000, 0.000, 14:24:46.253
52, 16.92, -2.92, 0.00, 0.00, 0.000, 0.000, 0.000, 14:24:46.253
53, 16.90, -0.87, 0.00, 0.00, 0.000, 0.000, 0.000, 14:24:46.253
54, 24.22, -4.53, 0.00, 0.00, 0.000, 0.000, 0.000, 14:24:46.253
55, 22.42, -6.20, 0.00, 0.00, 0.000, 0.000, 0.000, 14:24:46.266
56, 17.70, -2.31, 0.00, 0.00, 0.000, 0.000, 0.000, 14:24:46.266
57, 22.02, -4.54, 0.00, 0.00, 0.000, 0.000, 0.000, 14:24:46.282
58, 24.29, -2.51, 0.00, 0.00, 0.000, 0.000, 0.000, 14:24:46.282
59, 25.71, -3.80, 0.00, 0.00, 0.000, 0.000, 0.000, 14:24:46.282
60, 25.28, -3.42, 0.00, 0.00, 0.000, 0.000, 0.000, 14:24:46.282
61, 24.67, 0.75, 0.00, 0.00, 0.000, 0.000, 0.000, 14:24:46.298
62, 24.48, 2.64, 0.00, 0.00, 0.000, 0.000, 0.000, 14:24:46.298
63, 29.61, -1.19, 0.00, 0.00, 0.000, 0.000, 0.000, 14:24:46.312
64, 30.89, -1.31, 0.00, 0.00, 0.000, 0.000, 0.000, 14:24:46.312
65, 22.53, -0.93, 0.00, 0.00, 0.000, 0.000, 0.000, 14:24:46.312
66, 25.88, -0.49, 0.00, 0.00, 0.000, 0.000, 0.000, 14:24:46.312
67, 28.83, -2.49, 0.00, 0.00, 0.000, 0.000, 0.000, 14:24:46.327
68, 26.26, -0.37, 0.00, 0.00, 0.000, 0.000, 0.000, 14:24:46.327
69, 25.52, 0.18, 0.00, 0.00, 0.000, 0.000, 0.000, 14:24:46.342
70, 24.22, 1.11, 0.00, 0.00, 0.000, 0.000, 0.000, 14:24:46.342
71, 22.89, 2.33, 0.00, 0.00, 0.000, 0.000, 0.000, 14:24:46.343
72, 18.30, -0.54, 0.00, 0.00, 0.000, 0.000, 0.000, 14:24:46.343
73, 18.14, 2.73, 0.00, 0.00, 0.000, 0.000, 0.000, 14:24:46.357
74, 17.15, 1.28, 0.00, 0.00, 0.000, 0.000, 0.000, 14:24:46.357
75, 19.95, -1.18, 0.00, 0.00, 0.000, 0.000, 0.000, 14:24:46.372
76, 21.57, -2.26, 0.00, 0.00, 0.000, 0.000, 0.000, 14:24:46.372
77, 22.46, -0.02, 0.00, 0.00, 0.000, 0.000, 0.000, 14:24:46.387
78, 17.01, 0.26, 0.00, 0.00, 0.000, 0.000, 0.000, 14:24:46.387
79, 20.60, -2.15, 0.00, 0.00, 0.000, 0.000, 0.000, 14:24:46.387
80, 18.04, -0.40, 0.00, 0.00, 0.000, 0.000, 0.000, 14:24:46.387
81, 23.47, -0.70, 0.00, 0.00, 0.000, 0.000, 0.000, 14:24:46.402
82, 27.42, -3.31, 0.00, 0.00, 0.000, 0.000, 0.000, 14:24:46.402
83, 19.94, -0.17, 0.00, 0.00, 0.000, 0.000, 0.000, 14:24:46.403
84, 24.81, -6.30, 0.00, 0.00, 0.000, 0.000, 0.000, 14:24:46.403
85, 25.61, -2.91, 0.00, 0.00, 0.000, 0.000, 0.000, 14:24:46.416
86, 21.23, 0.18, 0.00, 0.00, 0.000, 0.000, 0.000, 14:24:46.416
87, 20.32, 1.28, 0.00, 0.00, 0.000, 0.000, 0.000, 14:24:46.432
88, 19.98, -2.12, 0.00, 0.00, 0.000, 0.000, 0.000, 14:24:46.432
89, 19.67, 0.71, 0.00, 0.00, 0.000, 0.000, 0.000, 14:24:46.433
90, 23.95, -2.04, 0.00, 0.00, 0.000, 0.000, 0.000, 14:24:46.433
91, 24.48, -3.66, 0.00, 0.00, 0.000, 0.000, 0.000, 14:24:46.447
92, 22.65, -3.67, 0.00, 0.00, 0.000, 0.000, 0.000, 14:24:46.447
93, 24.13, -2.75, 0.00, 0.00, 0.000, 0.000, 0.000, 14:24:46.462
94, 25.40, -3.50, 0.00, 0.00, 0.000, 0.000, 0.000, 14:24:46.462
95, 23.75, -3.78, 0.00, 0.00, 0.000, 0.000, 0.000, 14:24:46.462
96, 24.52, -3.96, 0.00, 0.00, 0.000, 0.000, 0.000, 14:24:46.462
97, 20.26, -6.12, 0.00, 0.00, 0.000, 0.000, 0.000, 14:24:46.477
98, 17.95, -4.28, 0.00, 0.00, 0.000, 0.000, 0.000, 14:24:46.477
99, 22.04, -2.71, 0.00, 0.00, 0.000, 0.000, 0.000, 14:24:46.492
100, 16.99, -3.69, 0.00, 0.00, 0.000, 0.000, 0.000, 14:24:46.492
101, 18.82, -6.68, 0.00, 0.00, 0.000, 0.000, 0.000, 14:24:46.492
102, 18.69, -2.17, 0.00, 0.00, 0.000, 0.000, 0.000, 14:24:46.492
103, 17.98, -0.86, 0.00, 0.00, 0.000, 0.000, 0.000, 14:24:46.507
104, 18.76, -4.38, 0.00, 0.00, 0.000, 0.000, 0.000, 14:24:46.508
105, 18.76, -3.69, 0.00, 0.00, 0.000, 0.000, 0.000, 14:24:46.521
106, 19.82, -0.70, 0.00, 0.00, 0.000, 0.000, 0.000, 14:24:46.521
107, 19.78, -3.62, 0.00, 0.00, 0.000, 0.000, 0.000, 14:24:46.521
108, 20.48, -5.90, 0.00, 0.00, 0.000, 0.000, 0.000, 14:24:46.522
109, 22.18, -5.79, 0.00, 0.00, 0.000, 0.000, 0.000, 14:24:46.537
110, 23.01, -5.82, 0.00, 0.00, 0.000, 0.000, 0.000, 14:24:46.537
111, 26.90, -7.34, 0.00, 0.00, 0.000, 0.000, 0.000, 14:24:46.552
112, 32.48, -9.18, 0.00, 0.00, 0.000, 0.000, 0.000, 14:24:46.552
113, 25.74, -8.42, 0.00, 0.00, 0.000, 0.000, 0.000, 14:24:46.552
114, 27.54, -6.45, 0.00, 0.00, 0.000, 0.000, 0.000, 14:24:46.552
115, 26.41, -7.86, 0.00, 0.00, 0.000, 0.000, 0.000, 14:24:46.567
116, 23.03, -4.44, 0.00, 0.00, 0.000, 0.000, 0.000, 14:24:46.567
117, 24.52, -4.50, 0.00, 0.00, 0.000, 0.000, 0.000, 14:24:46.581
118, 26.72, -7.50, 0.00, 0.00, 0.000, 0.000, 0.000, 14:24:46.581
119, 29.76, -8.34, 0.00, 0.00, 0.000, 0.000, 0.000, 14:24:46.582
120, 29.15, -8.80, 0.00, 0.00, 0.000, 0.000, 0.000, 14:24:46.582
121, 22.46, -8.67, 0.00, 0.00, 0.000, 0.000, 0.000, 14:24:46.597
122, 22.59, -2.76, 0.00, 0.00, 0.000, 0.000, 0.000, 14:24:46.597
123, 22.17, -1.20, 0.00, 0.00, 0.000, 0.000, 0.000, 14:24:46.612
124, 20.79, -4.08, 0.00, 0.00, 0.000, 0.000, 0.000, 14:24:46.612
125, 21.15, -1.34, 0.00, 0.00, 0.000, 0.000, 0.000, 14:24:46.612
126, 23.27, -4.55, 0.00, 0.00, 0.000, 0.000, 0.000, 14:24:46.612
127, 24.38, -5.23, 0.00, 0.00, 0.000, 0.000, 0.000, 14:24:46.627
128, 24.78, -9.10, 0.00, 0.00, 0.000, 0.000, 0.000, 14:24:46.627
129, 26.42, -8.02, 0.00, 0.00, 0.000, 0.000, 0.000, 14:24:46.642
130, 22.91, -4.74, 0.00, 0.00, 0.000, 0.000, 0.000, 14:24:46.642
131, 24.90, -6.72, 0.00, 0.00, 0.000, 0.000, 0.000, 14:24:46.643
132, 24.65, -5.25, 0.00, 0.00, 0.000, 0.000, 0.000, 14:24:46.643
133, 22.26, -4.48, 0.00, 0.00, 0.000, 0.000, 0.000, 14:24:46.657
134, 22.65, -6.48, 0.00, 0.00, 0.000, 0.000, 0.000, 14:24:46.657
135, 23.24, -1.08, 0.00, 0.00, 0.000, 0.000, 0.000, 14:24:46.672
136, 20.60, -4.00, 0.00, 0.00, 0.000, 0.000, 0.000, 14:24:46.672
137, 19.44, -1.74, 0.00, 0.00, 0.000, 0.000, 0.000, 14:24:46.672
138, 23.05, -1.39, 0.00, 0.00, 0.000, 0.000, 0.000, 14:24:46.672
139, 29.09, -6.55, 0.00, 0.00, 0.000, 0.000, 0.000, 14:24:46.686
140, 26.08, -3.35, 0.00, 0.00, 0.000, 0.000, 0.000, 14:24:46.686
141, 27.49, -3.46, 0.00, 0.00, 0.000, 0.000, 0.000, 14:24:46.702
142, 29.44, -3.74, 0.00, 0.00, 0.000, 0.000, 0.000, 14:24:46.702
143, 25.46, -3.53, 0.00, 0.00, 0.000, 0.000, 0.000, 14:24:46.702
144, 25.95, -1.44, 0.00, 0.00, 0.000, 0.000, 0.000, 14:24:46.702
145, 28.33, -4.42, 0.00, 0.00, 0.000, 0.000, 0.000, 14:24:46.717
146, 25.35, -2.67, 0.00, 0.00, 0.000, 0.000, 0.000, 14:24:46.718
147, 28.56, -3.24, 0.00, 0.00, 0.000, 0.000, 0.000, 14:24:46.732
148, 27.15, -3.63, 0.00, 0.00, 0.000, 0.000, 0.000, 14:24:46.732
149, 22.55, -1.20, 0.00, 0.00, 0.000, 0.000, 0.000, 14:24:46.732
150, 21.91, 3.17, 0.00, 0.00, 0.000, 0.000, 0.000, 14:24:46.732
151, 20.07, 2.73, 0.00, 0.00, 0.000, 0.000, 0.000, 14:24:46.747
152, 19.47, -0.10, 0.00, 0.00, 0.000, 0.000, 0.000, 14:24:46.747
153, 19.23, -2.19, 0.00, 0.00, 0.000, 0.000, 0.000, 14:24:46.762
154, 21.01, 2.23, 0.00, 0.00, 0.000, 0.000, 0.000, 14:24:46.762
155, 20.13, -1.54, 0.00, 0.00, 0.000, 0.000, 0.000, 14:24:46.762
156, 21.48, -4.08, 0.00, 0.00, 0.000, 0.000, 0.000, 14:24:46.763
157, 20.12, 0.57, 0.00, 0.00, 0.000, 0.000, 0.000, 14:24:46.778
158, 17.16, -0.75, 0.00, 0.00, 0.000, 0.000, 0.000, 14:24:46.778
159, 22.89, -1.43, 0.00, 0.00, 0.000, 0.000, 0.000, 14:24:46.792
160, 23.18, -4.21, 0.00, 0.00, 0.000, 0.000, 0.000, 14:24:46.792
161, 25.28, -4.70, 0.00, 0.00, 0.000, 0.000, 0.000, 14:24:46.801
162, 26.84, -6.37, 0.00, 0.00, 0.000, 0.000, 0.000, 14:24:46.801
163, 28.77, -5.31, 0.00, 0.00, 0.000, 0.000, 0.000, 14:24:46.807
164, 26.53, -4.68, 0.00, 0.00, 0.000, 0.000, 0.000, 14:24:46.807
165, 27.04, -3.51, 0.00, 0.00, 0.000, 0.000, 0.000, 14:24:46.821
166, 28.57, -1.24, 0.00, 0.00, 0.000, 0.000, 0.000, 14:24:46.821
167, 22.62, -2.54, 0.00, 0.00, 0.000, 0.000, 0.000, 14:24:46.823
168, 24.91, -1.94, 0.00, 0.00, 0.000, 0.000, 0.000, 14:24:46.823
169, 21.08, 1.40, 0.00, 0.00, 0.000, 0.000, 0.000, 14:24:46.837
170, 19.94, -1.38, 0.00, 0.00, 0.000, 0.000, 0.000, 14:24:46.837
171, 23.14, -4.57, 0.00, 0.00, 0.000, 0.000, 0.000, 14:24:46.852
172, 27.52, -8.80, 0.00, 0.00, 0.000, 0.000, 0.000, 14:24:46.852
173, 22.72, -4.48, 0.00, 0.00, 0.000, 0.000, 0.000, 14:24:46.852
174, 25.92, -0.54, 0.00, 0.00, 0.000, 0.000, 0.000, 14:24:46.852
175, 25.50, -3.37, 0.00, 0.00, 0.000, 0.000, 0.000, 14:24:46.867
176, 25.49, -1.48, 0.00, 0.00, 0.000, 0.000, 0.000, 14:24:46.867
177, 21.81, -3.24, 0.00, 0.00, 0.000, 0.000, 0.000, 14:24:46.881
178, 24.97, -6.06, 0.00, 0.00, 0.000, 0.000, 0.000, 14:24:46.881
179, 21.36, -0.22, 0.00, 0.00, 0.000, 0.000, 0.000, 14:24:46.882
180, 24.39, -3.57, 0.00, 0.00, 0.000, 0.000, 0.000, 14:24:46.882
181, 18.80, -3.62, 0.00, 0.00, 0.000, 0.000, 0.000, 14:24:46.897
182, 20.66, -0.39, 0.00, 0.00, 0.000, 0.000, 0.000, 14:24:46.897
183, 23.27, -4.12, 0.00, 0.00, 0.000, 0.000, 0.000, 14:24:46.927
184, 17.91, -3.75, 0.00, 0.00, 0.000, 0.000, 0.000, 14:24:46.927
185, 19.05, -6.15, 0.00, 0.00, 0.000, 0.000, 0.000, 14:24:46.927
186, 22.22, -4.62, 0.00, 0.00, 0.000, 0.000, 0.000, 14:24:46.927
187, 23.14, -7.72, 0.00, 0.00, 0.000, 0.000, 0.000, 14:24:46.928
188, 24.06, -4.18, 0.00, 0.00, 0.000, 0.000, 0.000, 14:24:46.928
189, 20.93, -3.39, 0.00, 0.00, 0.000, 0.000, 0.000, 14:24:46.928
190, 19.67, -2.44, 0.00, 0.00, 0.000, 0.000, 0.000, 14:24:46.928
191, 21.41, -0.07, 0.00, 0.00, 0.000, 0.000, 0.000, 14:24:46.942
192, 27.92, -10.37, 0.00, 0.00, 0.000, 0.000, 0.000, 14:24:46.942
193, 32.88, -8.59, 0.00, 0.00, 0.000, 0.000, 0.000, 14:24:46.957
194, 26.99, -5.79, 0.00, 0.00, 0.000, 0.000, 0.000, 14:24:46.957
195, 25.57, -4.92, 0.00, 0.00, 0.000, 0.000, 0.000, 14:24:46.972
196, 25.19, -8.35, 0.00, 0.00, 0.000, 0.000, 0.000, 14:24:46.972
197, 19.81, -6.14, 0.00, 0.00, 0.000, 0.000, 0.000, 14:24:46.973
198, 24.12, -6.62, 0.00, 0.00, 0.000, 0.000, 0.000, 14:24:46.973
199, 26.85, -4.92, 0.00, 0.00, 0.000, 0.000, 0.000, 14:24:46.987
200, 24.60, -6.00, 0.00, 0.00, 0.000, 0.000, 0.000, 14:24:46.987
0, 22.48, -2.13, 0.00, 0.00, 0.000, 0.000, 0.000, 14:24:46.987
1, 21.24, -4.23, 0.00, 0.00, 0.000, 0.000, 0.000, 14:24:47.002
2, 21.60, -2.41, 0.00, 0.00, 0.000, 0.000, 0.000, 14:24:47.002
3, 21.91, -6.80, 0.00, 0.00, 0.000, 0.000, 0.000, 14:24:47.017
4, 23.25, -5.45, 0.00, 0.00, 0.000, 0.000, 0.000, 14:24:47.017
5, 20.82, -4.02, 0.00, 0.00, 0.000, 0.000, 0.000, 14:24:47.017
6, 20.48, -6.49, 0.00, 0.00, 0.000, 0.000, 0.000, 14:24:47.017
7, 24.52, -8.27, 0.00, 0.00, 0.000, 0.000, 0.000, 14:24:47.032
8, 21.42, -7.14, 0.00, 0.00, 0.000, 0.000, 0.000, 14:24:47.032
9, 23.29, -7.57, 0.00, 0.00, 0.000, 0.000, 0.000, 14:24:47.047
10, 24.44, -7.57, 0.00, 0.00, 0.000, 0.000, 0.000, 14:24:47.048
11, 27.74, -6.36, 0.00, 0.00, 0.000, 0.000, 0.000, 14:24:47.048
12, 25.77, -7.78, 0.00, 0.00, 0.000, 0.000, 0.000, 14:24:47.048
13, 27.33, -5.47, 0.00, 0.00, 0.000, 0.000, 0.000, 14:24:47.063
14, 25.94, -6.31, 0.00, 0.00, 0.000, 0.000, 0.000, 14:24:47.064
15, 23.91, -1.80, 0.00, 0.00, 0.000, 0.000, 0.000, 14:24:47.077
16, 20.54, -3.85, 0.00, 0.00, 0.000, 0.000, 0.000, 14:24:47.077
17, 23.30, -2.26, 0.00, 0.00, 0.000, 0.000, 0.000, 14:24:47.078
18, 25.03, -3.05, 0.00, 0.00, 0.000, 0.000, 0.000, 14:24:47.078
19, 24.63, -5.76, 0.00, 0.00, 0.000, 0.000, 0.000, 14:24:47.093
20, 22.61, -3.72, 0.00, 0.00, 0.000, 0.000, 0.000, 14:24:47.093
21, 23.78, -8.18, 0.00, 0.00, 0.000, 0.000, 0.000, 14:24:47.107
22, 25.49, -6.41, 0.00, 0.00, 0.000, 0.000, 0.000, 14:24:47.107
23, 29.83, -9.46, 0.00, 0.00, 0.000, 0.000, 0.000, 14:24:47.107
24, 30.50, -7.49, 0.00, 0.00, 0.000, 0.000, 0.000, 14:24:47.107
25, 28.25, -3.76, 0.00, 0.00, 0.000, 0.000, 0.000, 14:24:47.122
26, 28.94, -4.61, 0.00, 0.00, 0.000, 0.000, 0.000, 14:24:47.122
27, 30.38, -6.13, 0.00, 0.00, 0.000, 0.000, 0.000, 14:24:47.137
28, 26.92, -1.97, 0.00, 0.00, 0.000, 0.000, 0.000, 14:24:47.137
29, 26.69, -2.00, 0.00, 0.00, 0.000, 0.000, 0.000, 14:24:47.137
30, 24.28, -3.04, 0.00, 0.00, 0.000, 0.000, 0.000, 14:24:47.138
31, 18.90, -4.11, 0.00, 0.00, 0.000, 0.000, 0.000, 14:24:47.152
32, 16.77, -3.75, 0.00, 0.00, 0.000, 0.000, 0.000, 14:24:47.152
33, 21.88, -1.66, 0.00, 0.00, 0.000, 0.000, 0.000, 14:24:47.167
34, 22.59, -6.77, 0.00, 0.00, 0.000, 0.000, 0.000, 14:24:47.167
35, 19.89, -4.62, 0.00, 0.00, 0.000, 0.000, 0.000, 14:24:47.167
36, 18.53, -4.67, 0.00, 0.00, 0.000, 0.000, 0.000, 14:24:47.167
37, 22.38, -1.24, 0.00, 0.00, 0.000, 0.000, 0.000, 14:24:47.181
38, 20.81, -1.03, 0.00, 0.00, 0.000, 0.000, 0.000, 14:24:47.181
39, 22.32, -4.59, 0.00, 0.00, 0.000, 0.000, 0.000, 14:24:47.197
40, 21.06, -4.45, 0.00, 0.00, 0.000, 0.000, 0.000, 14:24:47.197
41, 20.46, -3.82, 0.00, 0.00, 0.000, 0.000, 0.000, 14:24:47.197
42, 21.58, -3.04, 0.00, 0.00, 0.000, 0.000, 0.000, 14:24:47.197
43, 22.84, -4.43, 0.00, 0.00, 0.000, 0.000, 0.000, 14:24:47.212
44, 20.66, -3.75, 0.00, 0.00, 0.000, 0.000, 0.000, 14:24:47.212
45, 25.84, -4.37, 0.00, 0.00, 0.000, 0.000, 0.000, 14:24:47.227
46, 28.58, -6.45, 0.00, 0.00, 0.000, 0.000, 0.000, 14:24:47.227
47, 25.98, -7.31, 0.00, 0.00, 0.000, 0.000, 0.000, 14:24:47.234
48, 23.52, -4.34, 0.00, 0.00, 0.000, 0.000, 0.000, 14:24:47.234
49, 22.40, -2.63, 0.00, 0.00, 0.000, 0.000, 0.000, 14:24:47.242
50, 18.91, -1.28, 0.00, 0.00, 0.000, 0.000, 0.000, 14:24:47.242
51, 24.27, -3.67, 0.00, 0.00, 0.000, 0.000, 0.000, 14:24:47.257
52, 25.93, -4.35, 0.00, 0.00, 0.000, 0.000, 0.000, 14:24:47.257
53, 23.49, -3.60, 0.00, 0.00, 0.000, 0.000, 0.000, 14:24:47.257
54, 25.46, -3.63, 0.00, 0.00, 0.000, 0.000, 0.000, 14:24:47.257
55, 24.69, -6.14, 0.00, 0.00, 0.000, 0.000, 0.000, 14:24:47.272
56, 21.34, -6.70, 0.00, 0.00, 0.000, 0.000, 0.000, 14:24:47.272
57, 19.63, -2.42, 0.00, 0.00, 0.000, 0.000, 0.000, 14:24:47.286
58, 20.06, -4.73, 0.00, 0.00, 0.000, 0.000, 0.000, 14:24:47.286
59, 22.86, -8.76, 0.00, 0.00, 0.000, 0.000, 0.000, 14:24:47.287
60, 26.36, -7.71, 0.00, 0.00, 0.000, 0.000, 0.000, 14:24:47.287
61, 31.98, -6.48, 0.00, 0.00, 0.000, 0.000, 0.000, 14:24:47.302
62, 28.88, -2.98, 0.00, 0.00, 0.000, 0.000, 0.000, 14:24:47.302
63, 26.34, -5.48, 0.00, 0.00, 0.000, 0.000, 0.000, 14:24:47.317
64, 26.70, -6.34, 0.00, 0.00, 0.000, 0.000, 0.000, 14:24:47.317
65, 30.90, -3.25, 0.00, 0.00, 0.000, 0.000, 0.000, 14:24:47.317
66, 28.10, -2.93, 0.00, 0.00, 0.000, 0.000, 0.000, 14:24:47.318
67, 23.37, -4.83, 0.00, 0.00, 0.000, 0.000, 0.000, 14:24:47.333
68, 22.12, -3.51, 0.00, 0.00, 0.000, 0.000, 0.000, 14:24:47.333
69, 26.07, -4.91, 0.00, 0.00, 0.000, 0.000, 0.000, 14:24:47.347
70, 27.89, -5.52, 0.00, 0.00, 0.000, 0.000, 0.000, 14:24:47.347
71, 22.62, -8.01, 0.00, 0.00, 0.000, 0.000, 0.000, 14:24:47.347
72, 17.87, -6.68, 0.00, 0.00, 0.000, 0.000, 0.000, 14:24:47.347
73, 22.01, -9.53, 0.00, 0.00, 0.000, 0.000, 0.000, 14:24:47.364
74, 20.72, -7.01, 0.00, 0.00, 0.000, 0.000, 0.000, 14:24:47.364
75, 23.10, -6.85, 0.00, 0.00, 0.000, 0.000, 0.000, 14:24:47.378
76, 24.10, -8.74, 0.00, 0.00, 0.000, 0.000, 0.000, 14:24:47.378
77, 24.46, -7.64, 0.00, 0.00, 0.000, 0.000, 0.000, 14:24:47.378
78, 24.80, -7.12, 0.00, 0.00, 0.000, 0.000, 0.000, 14:24:47.378
79, 28.38, -11.80, 0.00, 0.00, 0.000, 0.000, 0.000, 14:24:47.391
80, 27.23, -10.26, 0.00, 0.00, 0.000, 0.000, 0.000, 14:24:47.391
81, 28.95, -6.74, 0.00, 0.00, 0.000, 0.000, 0.000, 14:24:47.407
82, 25.66, -7.33, 0.00, 0.00, 0.000, 0.000, 0.000, 14:24:47.407
83, 23.33, -4.98, 0.00, 0.00, 0.000, 0.000, 0.000, 14:24:47.407
84, 20.41, -6.66, 0.00, 0.00, 0.000, 0.000, 0.000, 14:24:47.407
85, 24.33, -4.09, 0.00, 0.00, 0.000, 0.000, 0.000, 14:24:47.422
86, 19.79, -8.15, 0.00, 0.00, 0.000, 0.000, 0.000, 14:24:47.422
87, 27.60, -10.60, 0.00, 0.00, 0.000, 0.000, 0.000, 14:24:47.437
88, 26.06, -6.17, 0.00, 0.00, 0.000, 0.000, 0.000, 14:24:47.437
89, 22.60, -5.49, 0.00, 0.00, 0.000, 0.000, 0.000, 14:24:47.437
90, 26.80, -5.58, 0.00, 0.00, 0.000, 0.000, 0.000, 14:24:47.437
91, 22.28, -6.15, 0.00, 0.00, 0.000, 0.000, 0.000, 14:24:47.469
92, 24.31, -7.01, 0.00, 0.00, 0.000, 0.000, 0.000, 14:24:47.469
93, 29.84, -6.48, 0.00, 0.00, 0.000, 0.000, 0.000, 14:24:47.469
94, 30.17, -7.65, 0.00, 0.00, 0.000, 0.000, 0.000, 14:24:47.469
95, 24.20, -9.22, 0.00, 0.00, 0.000, 0.000, 0.000, 14:24:47.469
96, 24.25, -6.15, 0.00, 0.00, 0.000, 0.000, 0.000, 14:24:47.469
97, 30.35, -4.69, 0.00, 0.00, 0.000, 0.000, 0.000, 14:24:47.483
98, 26.79, -5.61, 0.00, 0.00, 0.000, 0.000, 0.000, 14:24:47.483
99, 20.60, -4.58, 0.00, 0.00, 0.000, 0.000, 0.000, 14:24:47.497
100, 17.97, -6.89, 0.00, 0.00, 0.000, 0.000, 0.000, 14:24:47.497
101, 19.48, -2.85, 0.00, 0.00, 0.000, 0.000, 0.000, 14:24:47.498
102, 21.23, -4.77, 0.00, 0.00, 0.000, 0.000, 0.000, 14:24:47.498
103, 19.04, -9.38, 0.00, 0.00, 0.000, 0.000, 0.000, 14:24:47.512
104, 16.80, -5.87, 0.00, 0.00, 0.000, 0.000, 0.000, 14:24:47.512
105, 20.32, -8.25, 0.00, 0.00, 0.000, 0.000, 0.000, 14:24:47.527
106, 19.56, -7.96, 0.00, 0.00, 0.000, 0.000, 0.000, 14:24:47.527
107, 19.97, -10.36, 0.00, 0.00, 0.000, 0.000, 0.000, 14:24:47.528
108, 23.13, -12.62, 0.00, 0.00, 0.000, 0.000, 0.000, 14:24:47.528
109, 21.27, -8.40, 0.00, 0.00, 0.000, 0.000, 0.000, 14:24:47.542
110, 21.84, -8.55, 0.00, 0.00, 0.000, 0.000, 0.000, 14:24:47.542
111, 22.96, -11.69, 0.00, 0.00, 0.000, 0.000, 0.000, 14:24:47.557
112, 18.84, -12.37, 0.00, 0.00, 0.000, 0.000, 0.000, 14:24:47.557
113, 21.12, -10.43, 0.00, 0.00, 0.000, 0.000, 0.000, 14:24:47.557
114, 25.79, -11.15, 0.00, 0.00, 0.000, 0.000, 0.000, 14:24:47.557
115, 23.90, -12.57, 0.00, 0.00, 0.000, 0.000, 0.000, 14:24:47.572
116, 20.42, -7.93, 0.00, 0.00, 0.000, 0.000, 0.000, 14:24:47.572
117, 24.63, -8.22, 0.00, 0.00, 0.000, 0.000, 0.000, 14:24:47.586
118, 26.01, -7.56, 0.00, 0.00, 0.000, 0.000, 0.000, 14:24:47.587
119, 24.24, -8.53, 0.00, 0.00, 0.000, 0.000, 0.000, 14:24:47.588
120, 25.15, -8.39, 0.00, 0.00, 0.000, 0.000, 0.000, 14:24:47.588
121, 25.85, -5.67, 0.00, 0.00, 0.000, 0.000, 0.000, 14:24:47.609
122, 25.11, -9.71, 0.00, 0.00, 0.000, 0.000, 0.000, 14:24:47.609
123, 27.31, -11.08, 0.00, 0.00, 0.000, 0.000, 0.000, 14:24:47.617
124, 23.48, -7.84, 0.00, 0.00, 0.000, 0.000, 0.000, 14:24:47.617
125, 23.85, -3.46, 0.00, 0.00, 0.000, 0.000, 0.000, 14:24:47.617
126, 25.55, -7.48, 0.00, 0.00, 0.000, 0.000, 0.000, 14:24:47.617
127, 30.43, -11.66, 0.00, 0.00, 0.000, 0.000, 0.000, 14:24:47.632
128, 25.03, -12.08, 0.00, 0.00, 0.000, 0.000, 0.000, 14:24:47.632
129, 23.11, -4.54, 0.00, 0.00, 0.000, 0.000, 0.000, 14:24:47.647
130, 23.88, -10.50, 0.00, 0.00, 0.000, 0.000, 0.000, 14:24:47.647
131, 20.37, -9.25, 0.00, 0.00, 0.000, 0.000, 0.000, 14:24:47.647
132, 23.75, -7.09, 0.00, 0.00, 0.000, 0.000, 0.000, 14:24:47.647
133, 18.80, -7.34, 0.00, 0.00, 0.000, 0.000, 0.000, 14:24:47.662
134, 24.78, -6.86, 0.00, 0.00, 0.000, 0.000, 0.000, 14:24:47.662
135, 27.90, -9.95, 0.00, 0.00, 0.000, 0.000, 0.000, 14:24:47.677
136, 30.59, -9.25, 0.00, 0.00, 0.000, 0.000, 0.000, 14:24:47.677
137, 25.78, -4.13, 0.00, 0.00, 0.000, 0.000, 0.000, 14:24:47.678
138, 22.33, -5.28, 0.00, 0.00, 0.000, 0.000, 0.000, 14:24:47.678
139, 20.73, -5.89, 0.00, 0.00, 0.000, 0.000, 0.000, 14:24:47.693
140, 23.18, -5.91, 0.00, 0.00, 0.000, 0.000, 0.000, 14:24:47.693
141, 26.60, -8.58, 0.00, 0.00, 0.000, 0.000, 0.000, 14:24:47.707
142, 27.39, -6.71, 0.00, 0.00, 0.000, 0.000, 0.000, 14:24:47.708
143, 29.00, -8.25, 0.00, 0.00, 0.000, 0.000, 0.000, 14:24:47.708
144, 24.68, -6.05, 0.00, 0.00, 0.000, 0.000, 0.000, 14:24:47.708
145, 26.53, -7.04, 0.00, 0.00, 0.000, 0.000, 0.000, 14:24:47.722
146, 27.35, -2.51, 0.00, 0.00, 0.000, 0.000, 0.000, 14:24:47.722
147, 23.27, -7.68, 0.00, 0.00, 0.000, 0.000, 0.000, 14:24:47.737
148, 21.87, -7.79, 0.00, 0.00, 0.000, 0.000, 0.000, 14:24:47.737
149, 20.93, -6.73, 0.00, 0.00, 0.000, 0.000, 0.000, 14:24:47.737
150, 21.75, -5.67, 0.00, 0.00, 0.000, 0.000, 0.000, 14:24:47.737
151, 20.05, -5.24, 0.00, 0.00, 0.000, 0.000, 0.000, 14:24:47.751
152, 18.32, -5.34, 0.00, 0.00, 0.000, 0.000, 0.000, 14:24:47.751
153, 22.03, -8.63, 0.00, 0.00, 0.000, 0.000, 0.000, 14:24:47.767
154, 18.16, -5.01, 0.00, 0.00, 0.000, 0.000, 0.000, 14:24:47.767
155, 18.22, -9.62, 0.00, 0.00, 0.000, 0.000, 0.000, 14:24:47.767
156, 18.84, -8.39, 0.00, 0.00, 0.000, 0.000, 0.000, 14:24:47.767
157, 19.64, -4.30, 0.00, 0.00, 0.000, 0.000, 0.000, 14:24:47.781
158, 18.68, -3.65, 0.00, 0.00, 0.000, 0.000, 0.000, 14:24:47.782
159, 21.71, -5.85, 0.00, 0.00, 0.000, 0.000, 0.000, 14:24:47.797
160, 24.28, -7.19, 0.00, 0.00, 0.000, 0.000, 0.000, 14:24:47.797
161, 26.07, -9.11, 0.00, 0.00, 0.000, 0.000, 0.000, 14:24:47.797
162, 29.29, -5.78, 0.00, 0.00, 0.000, 0.000, 0.000, 14:24:47.797
163, 26.92, -7.74, 0.00, 0.00, 0.000, 0.000, 0.000, 14:24:47.812
164, 24.57, -3.92, 0.00, 0.00, 0.000, 0.000, 0.000, 14:24:47.812
165, 23.66, -5.72, 0.00, 0.00, 0.000, 0.000, 0.000, 14:24:47.828
166, 26.20, -4.21, 0.00, 0.00, 0.000, 0.000, 0.000, 14:24:47.828
167, 23.96, -6.42, 0.00, 0.00, 0.000, 0.000, 0.000, 14:24:47.828
168, 20.18, -3.79, 0.00, 0.00, 0.000, 0.000, 0.000, 14:24:47.828
169, 21.82, -1.89, 0.00, 0.00, 0.000, 0.000, 0.000, 14:24:47.842
170, 20.53, -4.69, 0.00, 0.00, 0.000, 0.000, 0.000, 14:24:47.843
171, 20.07, -5.75, 0.00, 0.00, 0.000, 0.000, 0.000, 14:24:47.857
172, 18.27, -4.04, 0.00, 0.00, 0.000, 0.000, 0.000, 14:24:47.857
173, 20.77, -3.70, 0.00, 0.00, 0.000, 0.000, 0.000, 14:24:47.857
174, 22.09, -4.74, 0.00, 0.00, 0.000, 0.000, 0.000, 14:24:47.858
175, 19.85, -5.38, 0.00, 0.00, 0.000, 0.000, 0.000, 14:24:47.872
176, 18.25, -6.49, 0.00, 0.00, 0.000, 0.000, 0.000, 14:24:47.872
177, 30.32, -6.65, 0.00, 0.00, 0.000, 0.000, 0.000, 14:24:47.886
178, 28.04, -9.04, 0.00, 0.00, 0.000, 0.000, 0.000, 14:24:47.886
179, 27.10, -10.60, 0.00, 0.00, 0.000, 0.000, 0.000, 14:24:47.887
180, 25.86, -10.99, 0.00, 0.00, 0.000, 0.000, 0.000, 14:24:47.887
181, 22.80, -5.28, 0.00, 0.00, 0.000, 0.000, 0.000, 14:24:47.902
182, 15.90, -4.74, 0.00, 0.00, 0.000, 0.000, 0.000, 14:24:47.902
183, 20.20, -7.50, 0.00, 0.00, 0.000, 0.000, 0.000, 14:24:47.917
184, 19.24, -8.12, 0.00, 0.00, 0.000, 0.000, 0.000, 14:24:47.917
185, 16.38, -5.51, 0.00, 0.00, 0.000, 0.000, 0.000, 14:24:47.924
186, 21.68, -9.90, 0.00, 0.00, 0.000, 0.000, 0.000, 14:24:47.924
187, 18.47, -11.78, 0.00, 0.00, 0.000, 0.000, 0.000, 14:24:47.947
188, 18.94, -8.54, 0.00, 0.00, 0.000, 0.000, 0.000, 14:24:47.947
189, 22.75, -4.89, 0.00, 0.00, 0.000, 0.000, 0.000, 14:24:47.947
190, 25.25, -4.77, 0.00, 0.00, 0.000, 0.000, 0.000, 14:24:47.947
191, 21.95, -8.63, 0.00, 0.00, 0.000, 0.000, 0.000, 14:24:47.948
192, 23.87, -5.53, 0.00, 0.00, 0.000, 0.000, 0.000, 14:24:47.949
193, 28.69, -6.64, 0.00, 0.00, 0.000, 0.000, 0.000, 14:24:47.962
194, 24.12, -10.29, 0.00, 0.00, 0.000, 0.000, 0.000, 14:24:47.962
195, 22.14, -6.38, 0.00, 0.00, 0.000, 0.000, 0.000, 14:24:47.977
196, 21.85, -3.24, 0.00, 0.00, 0.000, 0.000, 0.000, 14:24:47.977
197, 20.40, -3.12, 0.00, 0.00, 0.000, 0.000, 0.000, 14:24:47.978
198, 20.26, -5.66, 0.00, 0.00, 0.000, 0.000, 0.000, 14:24:47.978
199, 24.63, -11.49, 0.00, 0.00, 0.000, 0.000, 0.000, 14:24:47.992
200, 22.92, -11.97, 0.00, 0.00, 0.000, 0.000, 0.000, 14:24:47.992
0, 28.82, -11.19, 0.00, 0.00, 0.000, 0.000, 0.000, 14:24:47.992
1, 26.75, -12.40, 0.00, 0.00, 0.000, 0.000, 0.000, 14:24:48.007
2, 21.66, -8.43, 0.00, 0.00, 0.000, 0.000, 0.000, 14:24:48.007
3, 21.39, -7.19, 0.00, 0.00, 0.000, 0.000, 0.000, 14:24:48.022
4, 20.47, -6.24, 0.00, 0.00, 0.000, 0.000, 0.000, 14:24:48.022
5, 20.67, -7.54, 0.00, 0.00, 0.000, 0.000, 0.000, 14:24:48.022
6, 20.02, -12.74, 0.00, 0.00, 0.000, 0.000, 0.000, 14:24:48.022
7, 19.34, -11.58, 0.00, 0.00, 0.000, 0.000, 0.000, 14:24:48.037
8, 18.29, -7.82, 0.00, 0.00, 0.000, 0.000, 0.000, 14:24:48.037
9, 23.26, -7.66, 0.00, 0.00, 0.000, 0.000, 0.000, 14:24:48.051
10, 20.84, -10.90, 0.00, 0.00, 0.000, 0.000, 0.000, 14:24:48.051
11, 20.68, -8.12, 0.00, 0.00, 0.000, 0.000, 0.000, 14:24:48.052
12, 19.67, -6.92, 0.00, 0.00, 0.000, 0.000, 0.000, 14:24:48.052
13, 23.26, -7.84, 0.00, 0.00, 0.000, 0.000, 0.000, 14:24:48.067
14, 21.53, -9.25, 0.00, 0.00, 0.000, 0.000, 0.000, 14:24:48.067
15, 22.33, -8.13, 0.00, 0.00, 0.000, 0.000, 0.000, 14:24:48.081
16, 29.37, -8.99, 0.00, 0.00, 0.000, 0.000, 0.000, 14:24:48.082
17, 26.03, -6.57, 0.00, 0.00, 0.000, 0.000, 0.000, 14:24:48.082
18, 27.85, -10.76, 0.00, 0.00, 0.000, 0.000, 0.000, 14:24:48.082
19, 27.59, -10.62, 0.00, 0.00, 0.000, 0.000, 0.000, 14:24:48.097
20, 23.84, -3.58, 0.00, 0.00, 0.000, 0.000, 0.000, 14:24:48.097
21, 19.09, -1.80, 0.00, 0.00, 0.000, 0.000, 0.000, 14:24:48.112
22, 18.57, -3.37, 0.00, 0.00, 0.000, 0.000, 0.000, 14:24:48.112
23, 19.63, -2.42, 0.00, 0.00, 0.000, 0.000, 0.000, 14:24:48.112
24, 20.43, -4.80, 0.00, 0.00, 0.000, 0.000, 0.000, 14:24:48.112
25, 22.75, -5.33, 0.00, 0.00, 0.000, 0.000, 0.000, 14:24:48.127
26, 24.98, -7.10, 0.00, 0.00, 0.000, 0.000, 0.000, 14:24:48.127
27, 23.46, -4.86, 0.00, 0.00, 0.000, 0.000, 0.000, 14:24:48.142
28, 24.98, -5.75, 0.00, 0.00, 0.000, 0.000, 0.000, 14:24:48.142
29, 25.57, -8.33, 0.00, 0.00, 0.000, 0.000, 0.000, 14:24:48.143
30, 22.00, -8.43, 0.00, 0.00, 0.000, 0.000, 0.000, 14:24:48.143
31, 23.79, -5.51, 0.00, 0.00, 0.000, 0.000, 0.000, 14:24:48.157
32, 23.94, -4.28, 0.00, 0.00, 0.000, 0.000, 0.000, 14:24:48.157
33, 20.62, -5.52, 0.00, 0.00, 0.000, 0.000, 0.000, 14:24:48.172
34, 20.72, -6.65, 0.00, 0.00, 0.000, 0.000, 0.000, 14:24:48.172
35, 19.49, -4.84, 0.00, 0.00, 0.000, 0.000, 0.000, 14:24:48.172
36, 19.40, -2.85, 0.00, 0.00, 0.000, 0.000, 0.000, 14:24:48.172
37, 23.81, -5.14, 0.00, 0.00, 0.000, 0.000, 0.000, 14:24:48.187
38, 23.29, -4.62, 0.00, 0.00, 0.000, 0.000, 0.000, 14:24:48.187
39, 22.23, -4.99, 0.00, 0.00, 0.000, 0.000, 0.000, 14:24:48.202
40, 26.95, -4.54, 0.00, 0.00, 0.000, 0.000, 0.000, 14:24:48.202
41, 25.73, -4.19, 0.00, 0.00, 0.000, 0.000, 0.000, 14:24:48.203
42, 30.10, -7.45, 0.00, 0.00, 0.000, 0.000, 0.000, 14:24:48.203
43, 25.71, -6.00, 0.00, 0.00, 0.000, 0.000, 0.000, 14:24:48.217
44, 24.09, -2.53, 0.00, 0.00, 0.000, 0.000, 0.000, 14:24:48.217
45, 23.88, -4.56, 0.00, 0.00, 0.000, 0.000, 0.000, 14:24:48.232
46, 17.01, -5.32, 0.00, 0.00, 0.000, 0.000, 0.000, 14:24:48.232
47, 17.35, -2.76, 0.00, 0.00, 0.000, 0.000, 0.000, 14:24:48.233
48, 21.70, -6.97, 0.00, 0.00, 0.000, 0.000, 0.000, 14:24:48.233
49, 22.20, -5.44, 0.00, 0.00, 0.000, 0.000, 0.000, 14:24:48.247
50, 23.85, -4.29, 0.00, 0.00, 0.000, 0.000, 0.000, 14:24:48.247
51, 23.70, -3.07, 0.00, 0.00, 0.000, 0.000, 0.000, 14:24:48.262
52, 25.05, -6.42, 0.00, 0.00, 0.000, 0.000, 0.000, 14:24:48.262
53, 23.91, -4.48, 0.00, 0.00, 0.000, 0.000, 0.000, 14:24:48.262
54, 24.26, -4.50, 0.00, 0.00, 0.000, 0.000, 0.000, 14:24:48.262
55, 20.56, -1.83, 0.00, 0.00, 0.000, 0.000, 0.000, 14:24:48.277
56, 24.54, 2.06, 0.00, 0.00, 0.000, 0.000, 0.000, 14:24:48.277
57, 23.74, -3.55, 0.00, 0.00, 0.000, 0.000, 0.000, 14:24:48.292
58, 27.97, -3.25, 0.00, 0.00, 0.000, 0.000, 0.000, 14:24:48.292
59, 20.75, -0.03, 0.00, 0.00, 0.000, 0.000, 0.000, 14:24:48.292
60, 23.02, -1.16, 0.00, 0.00, 0.000, 0.000, 0.000, 14:24:48.292
61, 19.61, -3.35, 0.00, 0.00, 0.000, 0.000, 0.000, 14:24:48.307
62, 14.59, -2.78, 0.00, 0.00, 0.000, 0.000, 0.000, 14:24:48.307
63, 15.48, -1.55, 0.00, 0.00, 0.000, 0.000, 0.000, 14:24:48.322
64, 20.40, -4.60, 0.00, 0.00, 0.000, 0.000, 0.000, 14:24:48.322
65, 23.16, -4.61, 0.00, 0.00, 0.000, 0.000, 0.000, 14:24:48.322
66, 22.12, -4.14, 0.00, 0.00, 0.000, 0.000, 0.000, 14:24:48.322
67, 21.35, -5.66, 0.00, 0.00, 0.000, 0.000, 0.000, 14:24:48.337
68, 23.32, -4.28, 0.00, 0.00, 0.000, 0.000, 0.000, 14:24:48.337
69, 25.59, -4.21, 0.00, 0.00, 0.000, 0.000, 0.000, 14:24:48.352
70, 26.60, -2.78, 0.00, 0.00, 0.000, 0.000, 0.000, 14:24:48.352
71, 23.02, -2.01, 0.00, 0.00, 0.000, 0.000, 0.000, 14:24:48.352
72, 22.38, -1.21, 0.00, 0.00, 0.000, 0.000, 0.000, 14:24:48.353
73, 21.74, -1.07, 0.00, 0.00, 0.000, 0.000, 0.000, 14:24:48.367
74, 21.23, -4.27, 0.00, 0.00, 0.000, 0.000, 0.000, 14:24:48.367
75, 21.94, -2.38, 0.00, 0.00, 0.000, 0.000, 0.000, 14:24:48.383
76, 24.29, -0.78, 0.00, 0.00, 0.000, 0.000, 0.000, 14:24:48.384
77, 22.75, 1.24, 0.00, 0.00, 0.000, 0.000, 0.000, 14:24:48.384
78, 16.87, -2.15, 0.00, 0.00, 0.000, 0.000, 0.000, 14:24:48.384
79, 13.99, -2.02, 0.00, 0.00, 0.000, 0.000, 0.000, 14:24:48.397
80, 19.63, -1.94, 0.00, 0.00, 0.000, 0.000, 0.000, 14:24:48.397
81, 18.72, -3.15, 0.00, 0.00, 0.000, 0.000, 0.000, 14:24:48.412
82, 20.83, -4.98, 0.00, 0.00, 0.000, 0.000, 0.000, 14:24:48.412
83, 17.63, -3.95, 0.00, 0.00, 0.000, 0.000, 0.000, 14:24:48.418
84, 21.02, -4.16, 0.00, 0.00, 0.000, 0.000, 0.000, 14:24:48.419
85, 18.55, -2.50, 0.00, 0.00, 0.000, 0.000, 0.000, 14:24:48.427
86, 17.83, -5.07, 0.00, 0.00, 0.000, 0.000, 0.000, 14:24:48.427
87, 18.34, -1.44, 0.00, 0.00, 0.000, 0.000, 0.000, 14:24:48.442
88, 20.02, -4.49, 0.00, 0.00, 0.000, 0.000, 0.000, 14:24:48.442
89, 19.10, -4.15, 0.00, 0.00, 0.000, 0.000, 0.000, 14:24:48.442
90, 21.02, -4.45, 0.00, 0.00, 0.000, 0.000, 0.000, 14:24:48.442
91, 22.58, -3.82, 0.00, 0.00, 0.000, 0.000, 0.000, 14:24:48.457
92, 21.61, -3.29, 0.00, 0.00, 0.000, 0.000, 0.000, 14:24:48.457
93, 19.45, -5.49, 0.00, 0.00, 0.000, 0.000, 0.000, 14:24:48.472
94, 20.09, -3.09, 0.00, 0.00, 0.000, 0.000, 0.000, 14:24:48.472
95, 23.16, -4.57, 0.00, 0.00, 0.000, 0.000, 0.000, 14:24:48.472
96, 19.23, -1.56, 0.00, 0.00, 0.000, 0.000, 0.000, 14:24:48.472
97, 20.78, -2.90, 0.00, 0.00, 0.000, 0.000, 0.000, 14:24:48.486
98, 20.00, -4.26, 0.00, 0.00, 0.000, 0.000, 0.000, 14:24:48.486
99, 22.54, -9.36, 0.00, 0.00, 0.000, 0.000, 0.000, 14:24:48.502
100, 23.14, -6.08, 0.00, 0.00, 0.000, 0.000, 0.000, 14:24:48.502
101, 26.36, -7.52, 0.00, 0.00, 0.000, 0.000, 0.000, 14:24:48.502
102, 28.45, -7.14, 0.00, 0.00, 0.000, 0.000, 0.000, 14:24:48.502
103, 26.87, -5.88, 0.00, 0.00, 0.000, 0.000, 0.000, 14:24:48.516
104, 24.84, -7.10, 0.00, 0.00, 0.000, 0.000, 0.000, 14:24:48.517
105, 24.34, -3.90, 0.00, 0.00, 0.000, 0.000, 0.000, 14:24:48.532
106, 26.78, -7.21, 0.00, 0.00, 0.000, 0.000, 0.000, 14:24:48.532
107, 21.42, -2.32, 0.00, 0.00, 0.000, 0.000, 0.000, 14:24:48.533
108, 25.02, -3.29, 0.00, 0.00, 0.000, 0.000, 0.000, 14:24:48.533
109, 18.16, -3.61, 0.00, 0.00, 0.000, 0.000, 0.000, 14:24:48.548
110, 17.69, -3.64, 0.00, 0.00, 0.000, 0.000, 0.000, 14:24:48.548
111, 20.20, -4.66, 0.00, 0.00, 0.000, 0.000, 0.000, 14:24:48.562
112, 22.62, -1.14, 0.00, 0.00, 0.000, 0.000, 0.000, 14:24:48.562
113, 23.42, -2.99, 0.00, 0.00, 0.000, 0.000, 0.000, 14:24:48.562
114, 25.27, -4.91, 0.00, 0.00, 0.000, 0.000, 0.000, 14:24:48.562
115, 25.51, -0.73, 0.00, 0.00, 0.000, 0.000, 0.000, 14:24:48.577
116, 28.42, 0.58, 0.00, 0.00, 0.000, 0.000, 0.000, 14:24:48.577
117, 26.81, -0.68, 0.00, 0.00, 0.000, 0.000, 0.000, 14:24:48.592
118, 23.97, -5.29, 0.00, 0.00, 0.000, 0.000, 0.000, 14:24:48.592
119, 24.09, -2.47, 0.00, 0.00, 0.000, 0.000, 0.000, 14:24:48.592
120, 22.65, 0.62, 0.00, 0.00, 0.000, 0.000, 0.000, 14:24:48.592
121, 22.72, -1.88, 0.00, 0.00, 0.000, 0.000, 0.000, 14:24:48.608
122, 20.46, -1.27, 0.00, 0.00, 0.000, 0.000, 0.000, 14:24:48.608
123, 21.13, -2.87, 0.00, 0.00, 0.000, 0.000, 0.000, 14:24:48.622
124, 23.23, -1.04, 0.00, 0.00, 0.000, 0.000, 0.000, 14:24:48.622
125, 22.42, -1.49, 0.00, 0.00, 0.000, 0.000, 0.000, 14:24:48.623
126, 23.63, -4.20, 0.00, 0.00, 0.000, 0.000, 0.000, 14:24:48.623
127, 24.93, -3.33, 0.00, 0.00, 0.000, 0.000, 0.000, 14:24:48.637
128, 21.38, 1.75, 0.00, 0.00, 0.000, 0.000, 0.000, 14:24:48.637
129, 24.66, -2.12, 0.00, 0.00, 0.000, 0.000, 0.000, 14:24:48.652
130, 22.09, -6.34, 0.00, 0.00, 0.000, 0.000, 0.000, 14:24:48.652
131, 21.75, -3.08, 0.00, 0.00, 0.000, 0.000, 0.000, 14:24:48.652
132, 24.75, -2.86, 0.00, 0.00, 0.000, 0.000, 0.000, 14:24:48.652
133, 24.59, -1.53, 0.00, 0.00, 0.000, 0.000, 0.000, 14:24:48.667
134, 20.09, -2.83, 0.00, 0.00, 0.000, 0.000, 0.000, 14:24:48.667
135, 19.91, -0.30, 0.00, 0.00, 0.000, 0.000, 0.000, 14:24:48.682
136, 24.63, -1.49, 0.00, 0.00, 0.000, 0.000, 0.000, 14:24:48.683
137, 21.32, -2.84, 0.00, 0.00, 0.000, 0.000, 0.000, 14:24:48.683
138, 21.40, -4.82, 0.00, 0.00, 0.000, 0.000, 0.000, 14:24:48.683
139, 21.90, 0.36, 0.00, 0.00, 0.000, 0.000, 0.000, 14:24:48.697
140, 22.81, 3.10, 0.00, 0.00, 0.000, 0.000, 0.000, 14:24:48.697
141, 23.49, -1.05, 0.00, 0.00, 0.000, 0.000, 0.000, 14:24:48.711
142, 27.75, -2.46, 0.00, 0.00, 0.000, 0.000, 0.000, 14:24:48.712
143, 22.15, -0.49, 0.00, 0.00, 0.000, 0.000, 0.000, 14:24:48.712
144, 23.22, 0.00, 0.00, 0.00, 0.000, 0.000, 0.000, 14:24:48.712
145, 27.81, -2.31, 0.00, 0.00, 0.000, 0.000, 0.000, 14:24:48.727
146, 26.57, -2.00, 0.00, 0.00, 0.000, 0.000, 0.000, 14:24:48.727
147, 22.06, 0.68, 0.00, 0.00, 0.000, 0.000, 0.000, 14:24:48.743
148, 24.57, 1.08, 0.00, 0.00, 0.000, 0.000, 0.000, 14:24:48.743
149, 23.42, 0.74, 0.00, 0.00, 0.000, 0.000, 0.000, 14:24:48.743
150, 26.02, -2.97, 0.00, 0.00, 0.000, 0.000, 0.000, 14:24:48.743
151, 24.59, 0.70, 0.00, 0.00, 0.000, 0.000, 0.000, 14:24:48.757
152, 19.72, 5.68, 0.00, 0.00, 0.000, 0.000, 0.000, 14:24:48.757
153, 19.90, 2.15, 0.00, 0.00, 0.000, 0.000, 0.000, 14:24:48.772
154, 20.88, -2.68, 0.00, 0.00, 0.000, 0.000, 0.000, 14:24:48.772
155, 20.10, -1.31, 0.00, 0.00, 0.000, 0.000, 0.000, 14:24:48.772
156, 23.69, 1.94, 0.00, 0.00, 0.000, 0.000, 0.000, 14:24:48.772
157, 19.62, -3.61, 0.00, 0.00, 0.000, 0.000, 0.000, 14:24:48.787
158, 16.96, -2.21, 0.00, 0.00, 0.000, 0.000, 0.000, 14:24:48.787
159, 22.51, -2.07, 0.00, 0.00, 0.000, 0.000, 0.000, 14:24:48.802
160, 23.93, 4.15, 0.00, 0.00, 0.000, 0.000, 0.000, 14:24:48.802
161, 19.74, 1.63, 0.00, 0.00, 0.000, 0.000, 0.000, 14:24:48.802
162, 23.54, -1.23, 0.00, 0.00, 0.000, 0.000, 0.000, 14:24:48.802
163, 23.79, -2.86, 0.00, 0.00, 0.000, 0.000, 0.000, 14:24:48.817
164, 21.59, 4.82, 0.00, 0.00, 0.000, 0.000, 0.000, 14:24:48.817
165, 21.74, -1.73, 0.00, 0.00, 0.000, 0.000, 0.000, 14:24:48.832
166, 20.58, -4.28, 0.00, 0.00, 0.000, 0.000, 0.000, 14:24:48.832
167, 21.04, -1.77, 0.00, 0.00, 0.000, 0.000, 0.000, 14:24:48.833
168, 21.72, 3.94, 0.00, 0.00, 0.000, 0.000, 0.000, 14:24:48.833
169, 19.06, -0.53, 0.00, 0.00, 0.000, 0.000, 0.000, 14:24:48.847
170, 20.38, -1.41, 0.00, 0.00, 0.000, 0.000, 0.000, 14:24:48.847
171, 25.35, -0.01, 0.00, 0.00, 0.000, 0.000, 0.000, 14:24:48.862
172, 24.15, 1.07, 0.00, 0.00, 0.000, 0.000, 0.000, 14:24:48.862
173, 20.40, -2.29, 0.00, 0.00, 0.000, 0.000, 0.000, 14:24:48.869
174, 22.94, -4.41, 0.00, 0.00, 0.000, 0.000, 0.000, 14:24:48.869
175, 19.29, 0.92, 0.00, 0.00, 0.000, 0.000, 0.000, 14:24:48.877
176, 17.94, 3.84, 0.00, 0.00, 0.000, 0.000, 0.000, 14:24:48.877
177, 22.44, -0.56, 0.00, 0.00, 0.000, 0.000, 0.000, 14:24:48.892
178, 25.44, -3.61, 0.00, 0.00, 0.000, 0.000, 0.000, 14:24:48.892
179, 26.62, -1.12, 0.00, 0.00, 0.000, 0.000, 0.000, 14:24:48.892
180, 26.58, 0.78, 0.00, 0.00, 0.000, 0.000, 0.000, 14:24:48.892
181, 29.99, -1.38, 0.00, 0.00, 0.000, 0.000, 0.000, 14:24:48.907
182, 22.16, -0.78, 0.00, 0.00, 0.000, 0.000, 0.000, 14:24:48.907
183, 19.60, 2.34, 0.00, 0.00, 0.000, 0.000, 0.000, 14:24:48.922
184, 17.85, 4.38, 0.00, 0.00, 0.000, 0.000, 0.000, 14:24:48.922
185, 17.29, 2.02, 0.00, 0.00, 0.000, 0.000, 0.000, 14:24:48.922
186, 16.46, -4.49, 0.00, 0.00, 0.000, 0.000, 0.000, 14:24:48.922
187, 21.62, 2.78, 0.00, 0.00, 0.000, 0.000, 0.000, 14:24:48.937
188, 19.41, 3.35, 0.00, 0.00, 0.000, 0.000, 0.000, 14:24:48.937
189, 20.49, 1.26, 0.00, 0.00, 0.000, 0.000, 0.000, 14:24:48.952
190, 23.65, -2.23, 0.00, 0.00, 0.000, 0.000, 0.000, 14:24:48.952
191, 22.22, 0.83, 0.00, 0.00, 0.000, 0.000, 0.000, 14:24:48.952
192, 19.59, 1.26, 0.00, 0.00, 0.000, 0.000, 0.000, 14:24:48.952
193, 23.43, -1.13, 0.00, 0.00, 0.000, 0.000, 0.000, 14:24:48.966
194, 18.23, -1.19, 0.00, 0.00, 0.000, 0.000, 0.000, 14:24:48.967
195, 22.36, -0.56, 0.00, 0.00, 0.000, 0.000, 0.000, 14:24:48.982
196, 19.74, 1.20, 0.00, 0.00, 0.000, 0.000, 0.000, 14:24:48.982
197, 20.69, -0.70, 0.00, 0.00, 0.000, 0.000, 0.000, 14:24:48.983
198, 21.80, -0.38, 0.00, 0.00, 0.000, 0.000, 0.000, 14:24:48.983
199, 23.98, -0.66, 0.00, 0.00, 0.000, 0.000, 0.000, 14:24:48.997
200, 18.12, 2.39, 0.00, 0.00, 0.000, 0.000, 0.000, 14:24:48.997
0, 17.24, -0.36, 0.00, 0.00, 0.000, 0.000, 0.000, 14:24:48.997
1, 20.30, -2.62, 0.00, 0.00, 0.000, 0.000, 0.000, 14:24:49.012
2, 21.42, 1.57, 0.00, 0.00, 0.000, 0.000, 0.000, 14:24:49.013
3, 19.21, 2.39, 0.00, 0.00, 0.000, 0.000, 0.000, 14:24:49.027
4, 22.27, 2.02, 0.00, 0.00, 0.000, 0.000, 0.000, 14:24:49.027
5, 17.34, -0.73, 0.00, 0.00, 0.000, 0.000, 0.000, 14:24:49.027
6, 23.13, -0.55, 0.00, 0.00, 0.000, 0.000, 0.000, 14:24:49.027
7, 24.83, 2.85, 0.00, 0.00, 0.000, 0.000, 0.000, 14:24:49.042
8, 20.04, 2.31, 0.00, 0.00, 0.000, 0.000, 0.000, 14:24:49.042
9, 24.36, -0.36, 0.00, 0.00, 0.000, 0.000, 0.000, 14:24:49.057
10, 23.91, 2.09, 0.00, 0.00, 0.000, 0.000, 0.000, 14:24:49.057
11, 22.14, 5.22, 0.00, 0.00, 0.000, 0.000, 0.000, 14:24:49.057
12, 21.08, 3.45, 0.00, 0.00, 0.000, 0.000, 0.000, 14:24:49.057
13, 20.79, -1.47, 0.00, 0.00, 0.000, 0.000, 0.000, 14:24:49.072
14, 17.57, 1.02, 0.00, 0.00, 0.000, 0.000, 0.000, 14:24:49.072
15, 21.52, 3.15, 0.00, 0.00, 0.000, 0.000, 0.000, 14:24:49.087
