%OpenBCI Raw EEG Data
%
%Sample Rate = 200.0 Hz
%First Column = SampleIndex
%Last Column = Timestamp 
%Other Columns = EEG data in microvolts followed by Accel Data (in G) interleaved with Aux Data
0, 31.70, -21.89, 0.00, 0.00, 0.000, 0.000, 0.000, 10:30:30.442
1, 46.59, -17.61, 0.00, 0.00, 0.000, 0.000, 0.000, 10:30:30.455
2, 42.23, -19.09, 0.00, 0.00, 0.000, 0.000, 0.000, 10:30:30.455
3, 32.55, -25.40, 0.00, 0.00, 0.000, 0.000, 0.000, 10:30:30.470
4, 28.66, -20.55, 0.00, 0.00, 0.000, 0.000, 0.000, 10:30:30.470
5, 42.86, -17.61, 0.00, 0.00, 0.000, 0.000, 0.000, 10:30:30.470
6, 44.36, -24.09, 0.00, 0.00, 0.000, 0.000, 0.000, 10:30:30.471
7, 32.12, -25.79, 0.00, 0.00, 0.000, 0.000, 0.000, 10:30:30.499
8, 29.95, -24.19, 0.00, 0.00, 0.000, 0.000, 0.000, 10:30:30.499
9, 48.70, -18.51, 0.00, 0.00, 0.000, 0.000, 0.000, 10:30:30.499
10, 46.37, -19.73, 0.00, 0.00, 0.000, 0.000, 0.000, 10:30:30.499
11, 31.45, -25.40, 0.00, 0.00, 0.000, 0.000, 0.000, 10:30:30.501
12, 35.13, -21.68, 0.00, 0.00, 0.000, 0.000, 0.000, 10:30:30.501
13, 46.60, -17.40, 0.00, 0.00, 0.000, 0.000, 0.000, 10:30:30.514
14, 44.48, -19.69, 0.00, 0.00, 0.000, 0.000, 0.000, 10:30:30.514
15, 31.19, -28.47, 0.00, 0.00, 0.000, 0.000, 0.000, 10:30:30.530
16, 32.26, -23.06, 0.00, 0.00, 0.000, 0.000, 0.000, 10:30:30.530
17, 43.27, -16.37, 0.00, 0.00, 0.000, 0.000, 0.000, 10:30:30.530
18, 41.91, -18.94, 0.00, 0.00, 0.000, 0.000, 0.000, 10:30:30.530
19, 33.46, -20.92, 0.00, 0.00, 0.000, 0.000, 0.000, 10:30:30.545
20, 33.24, -19.40, 0.00, 0.00, 0.000, 0.000, 0.000, 10:30:30.545
21, 43.50, -18.21, 0.00, 0.00, 0.000, 0.000, 0.000, 10:30:30.560
22, 42.87, -20.81, 0.00, 0.00, 0.000, 0.000, 0.000, 10:30:30.560
23, 28.44, -26.54, 0.00, 0.00, 0.000, 0.000, 0.000, 10:30:30.561
24, 33.15, -22.51, 0.00, 0.00, 0.000, 0.000, 0.000, 10:30:30.561
25, 45.59, -19.25, 0.00, 0.00, 0.000, 0.000, 0.000, 10:30:30.575
26, 44.90, -19.80, 0.00, 0.00, 0.000, 0.000, 0.000, 10:30:30.575
27, 32.28, -28.73, 0.00, 0.00, 0.000, 0.000, 0.000, 10:30:30.591
28, 33.80, -24.90, 0.00, 0.00, 0.000, 0.000, 0.000, 10:30:30.591
29, 42.66, -19.14, 0.00, 0.00, 0.000, 0.000, 0.000, 10:30:30.591
30, 45.04, -21.72, 0.00, 0.00, 0.000, 0.000, 0.000, 10:30:30.591
31, 31.01, -27.72, 0.00, 0.00, 0.000, 0.000, 0.000, 10:30:30.605
32, 32.53, -20.69, 0.00, 0.00, 0.000, 0.000, 0.000, 10:30:30.605
33, 44.73, -22.29, 0.00, 0.00, 0.000, 0.000, 0.000, 10:30:30.619
34, 46.68, -24.70, 0.00, 0.00, 0.000, 0.000, 0.000, 10:30:30.619
35, 30.32, -33.84, 0.00, 0.00, 0.000, 0.000, 0.000, 10:30:30.620
36, 29.42, -26.32, 0.00, 0.00, 0.000, 0.000, 0.000, 10:30:30.620
37, 45.17, -22.13, 0.00, 0.00, 0.000, 0.000, 0.000, 10:30:30.650
38, 45.53, -22.53, 0.00, 0.00, 0.000, 0.000, 0.000, 10:30:30.650
39, 32.27, -33.15, 0.00, 0.00, 0.000, 0.000, 0.000, 10:30:30.651
40, 31.69, -24.75, 0.00, 0.00, 0.000, 0.000, 0.000, 10:30:30.651
41, 48.00, -15.57, 0.00, 0.00, 0.000, 0.000, 0.000, 10:30:30.651
42, 47.53, -23.17, 0.00, 0.00, 0.000, 0.000, 0.000, 10:30:30.651
43, 29.68, -32.56, 0.00, 0.00, 0.000, 0.000, 0.000, 10:30:30.665
44, 29.89, -26.30, 0.00, 0.00, 0.000, 0.000, 0.000, 10:30:30.665
45, 47.67, -22.14, 0.00, 0.00, 0.000, 0.000, 0.000, 10:30:30.680
46, 46.94, -24.06, 0.00, 0.00, 0.000, 0.000, 0.000, 10:30:30.680
47, 30.79, -30.78, 0.00, 0.00, 0.000, 0.000, 0.000, 10:30:30.680
48, 31.38, -24.33, 0.00, 0.00, 0.000, 0.000, 0.000, 10:30:30.680
49, 45.80, -19.41, 0.00, 0.00, 0.000, 0.000, 0.000, 10:30:30.695
50, 46.93, -24.08, 0.00, 0.00, 0.000, 0.000, 0.000, 10:30:30.695
51, 31.98, -33.94, 0.00, 0.00, 0.000, 0.000, 0.000, 10:30:30.710
52, 33.94, -27.52, 0.00, 0.00, 0.000, 0.000, 0.000, 10:30:30.710
53, 50.07, -16.49, 0.00, 0.00, 0.000, 0.000, 0.000, 10:30:30.710
54, 45.24, -19.09, 0.00, 0.00, 0.000, 0.000, 0.000, 10:30:30.710
55, 32.21, -32.52, 0.00, 0.00, 0.000, 0.000, 0.000, 10:30:30.726
56, 33.98, -21.09, 0.00, 0.00, 0.000, 0.000, 0.000, 10:30:30.726
57, 49.14, -18.47, 0.00, 0.00, 0.000, 0.000, 0.000, 10:30:30.739
58, 50.25, -21.54, 0.00, 0.00, 0.000, 0.000, 0.000, 10:30:30.739
59, 34.84, -28.82, 0.00, 0.00, 0.000, 0.000, 0.000, 10:30:30.740
60, 34.61, -21.63, 0.00, 0.00, 0.000, 0.000, 0.000, 10:30:30.740
61, 47.88, -16.82, 0.00, 0.00, 0.000, 0.000, 0.000, 10:30:30.755
62, 44.83, -19.44, 0.00, 0.00, 0.000, 0.000, 0.000, 10:30:30.755
63, 30.45, -29.59, 0.00, 0.00, 0.000, 0.000, 0.000, 10:30:30.771
64, 31.98, -23.26, 0.00, 0.00, 0.000, 0.000, 0.000, 10:30:30.771
65, 45.15, -18.24, 0.00, 0.00, 0.000, 0.000, 0.000, 10:30:30.771
66, 43.44, -19.85, 0.00, 0.00, 0.000, 0.000, 0.000, 10:30:30.771
67, 29.51, -31.37, 0.00, 0.00, 0.000, 0.000, 0.000, 10:30:30.791
68, 30.94, -23.64, 0.00, 0.00, 0.000, 0.000, 0.000, 10:30:30.792
69, 45.18, -19.84, 0.00, 0.00, 0.000, 0.000, 0.000, 10:30:30.800
70, 48.61, -21.74, 0.00, 0.00, 0.000, 0.000, 0.000, 10:30:30.800
71, 31.51, -26.03, 0.00, 0.00, 0.000, 0.000, 0.000, 10:30:30.800
72, 30.90, -23.19, 0.00, 0.00, 0.000, 0.000, 0.000, 10:30:30.800
73, 51.22, -22.24, 0.00, 0.00, 0.000, 0.000, 0.000, 10:30:30.815
74, 44.99, -20.54, 0.00, 0.00, 0.000, 0.000, 0.000, 10:30:30.815
75, 31.68, -30.77, 0.00, 0.00, 0.000, 0.000, 0.000, 10:30:30.830
76, 31.87, -25.72, 0.00, 0.00, 0.000, 0.000, 0.000, 10:30:30.830
77, 48.98, -15.07, 0.00, 0.00, 0.000, 0.000, 0.000, 10:30:30.830
78, 46.20, -21.45, 0.00, 0.00, 0.000, 0.000, 0.000, 10:30:30.830
79, 32.53, -31.79, 0.00, 0.00, 0.000, 0.000, 0.000, 10:30:30.845
80, 32.77, -21.48, 0.00, 0.00, 0.000, 0.000, 0.000, 10:30:30.845
81, 48.75, -20.69, 0.00, 0.00, 0.000, 0.000, 0.000, 10:30:30.860
82, 46.16, -23.74, 0.00, 0.00, 0.000, 0.000, 0.000, 10:30:30.860
83, 32.46, -27.25, 0.00, 0.00, 0.000, 0.000, 0.000, 10:30:30.860
84, 33.15, -24.89, 0.00, 0.00, 0.000, 0.000, 0.000, 10:30:30.860
85, 44.91, -20.63, 0.00, 0.00, 0.000, 0.000, 0.000, 10:30:30.874
86, 45.45, -22.10, 0.00, 0.00, 0.000, 0.000, 0.000, 10:30:30.875
87, 31.09, -26.47, 0.00, 0.00, 0.000, 0.000, 0.000, 10:30:30.890
88, 34.33, -24.31, 0.00, 0.00, 0.000, 0.000, 0.000, 10:30:30.890
89, 46.36, -17.22, 0.00, 0.00, 0.000, 0.000, 0.000, 10:30:30.890
90, 45.85, -22.09, 0.00, 0.00, 0.000, 0.000, 0.000, 10:30:30.891
91, 30.14, -27.26, 0.00, 0.00, 0.000, 0.000, 0.000, 10:30:30.905
92, 33.39, -22.58, 0.00, 0.00, 0.000, 0.000, 0.000, 10:30:30.905
93, 50.14, -20.63, 0.00, 0.00, 0.000, 0.000, 0.000, 10:30:30.919
94, 46.46, -21.76, 0.00, 0.00, 0.000, 0.000, 0.000, 10:30:30.921
95, 35.43, -28.78, 0.00, 0.00, 0.000, 0.000, 0.000, 10:30:30.921
96, 32.59, -23.77, 0.00, 0.00, 0.000, 0.000, 0.000, 10:30:30.921
97, 48.96, -16.51, 0.00, 0.00, 0.000, 0.000, 0.000, 10:30:30.936
98, 48.10, -18.70, 0.00, 0.00, 0.000, 0.000, 0.000, 10:30:30.936
99, 35.54, -28.94, 0.00, 0.00, 0.000, 0.000, 0.000, 10:30:30.949
100, 37.76, -23.71, 0.00, 0.00, 0.000, 0.000, 0.000, 10:30:30.950
101, 49.10, -14.59, 0.00, 0.00, 0.000, 0.000, 0.000, 10:30:30.950
102, 47.52, -17.75, 0.00, 0.00, 0.000, 0.000, 0.000, 10:30:30.950
103, 34.01, -30.71, 0.00, 0.00, 0.000, 0.000, 0.000, 10:30:30.966
104, 33.23, -24.22, 0.00, 0.00, 0.000, 0.000, 0.000, 10:30:30.966
105, 49.83, -17.48, 0.00, 0.00, 0.000, 0.000, 0.000, 10:30:30.980
106, 44.28, -18.39, 0.00, 0.00, 0.000, 0.000, 0.000, 10:30:30.980
107, 31.40, -24.32, 0.00, 0.00, 0.000, 0.000, 0.000, 10:30:30.980
108, 31.88, -22.76, 0.00, 0.00, 0.000, 0.000, 0.000, 10:30:30.981
109, 44.68, -23.57, 0.00, 0.00, 0.000, 0.000, 0.000, 10:30:30.997
110, 42.16, -21.19, 0.00, 0.00, 0.000, 0.000, 0.000, 10:30:30.997
111, 31.46, -27.70, 0.00, 0.00, 0.000, 0.000, 0.000, 10:30:31.010
112, 31.62, -23.92, 0.00, 0.00, 0.000, 0.000, 0.000, 10:30:31.010
113, 44.47, -18.78, 0.00, 0.00, 0.000, 0.000, 0.000, 10:30:31.010
114, 44.29, -25.25, 0.00, 0.00, 0.000, 0.000, 0.000, 10:30:31.010
115, 31.53, -26.15, 0.00, 0.00, 0.000, 0.000, 0.000, 10:30:31.025
116, 31.20, -20.60, 0.00, 0.00, 0.000, 0.000, 0.000, 10:30:31.025
117, 44.35, -19.52, 0.00, 0.00, 0.000, 0.000, 0.000, 10:30:31.056
118, 43.84, -24.96, 0.00, 0.00, 0.000, 0.000, 0.000, 10:30:31.056
119, 30.65, -28.66, 0.00, 0.00, 0.000, 0.000, 0.000, 10:30:31.056
120, 31.56, -22.21, 0.00, 0.00, 0.000, 0.000, 0.000, 10:30:31.056
121, 44.61, -22.12, 0.00, 0.00, 0.000, 0.000, 0.000, 10:30:31.057
122, 42.39, -22.61, 0.00, 0.00, 0.000, 0.000, 0.000, 10:30:31.057
123, 29.78, -27.00, 0.00, 0.00, 0.000, 0.000, 0.000, 10:30:31.057
124, 31.52, -20.64, 0.00, 0.00, 0.000, 0.000, 0.000, 10:30:31.058
125, 41.87, -13.38, 0.00, 0.00, 0.000, 0.000, 0.000, 10:30:31.069
126, 41.57, -23.99, 0.00, 0.00, 0.000, 0.000, 0.000, 10:30:31.070
127, 26.65, -28.74, 0.00, 0.00, 0.000, 0.000, 0.000, 10:30:31.084
128, 31.08, -21.24, 0.00, 0.00, 0.000, 0.000, 0.000, 10:30:31.084
129, 44.53, -17.87, 0.00, 0.00, 0.000, 0.000, 0.000, 10:30:31.099
130, 42.29, -23.79, 0.00, 0.00, 0.000, 0.000, 0.000, 10:30:31.100
131, 30.36, -23.03, 0.00, 0.00, 0.000, 0.000, 0.000, 10:30:31.100
132, 32.86, -21.24, 0.00, 0.00, 0.000, 0.000, 0.000, 10:30:31.100
133, 48.13, -20.21, 0.00, 0.00, 0.000, 0.000, 0.000, 10:30:31.115
134, 45.88, -20.06, 0.00, 0.00, 0.000, 0.000, 0.000, 10:30:31.116
135, 34.57, -29.43, 0.00, 0.00, 0.000, 0.000, 0.000, 10:30:31.131
136, 32.27, -20.29, 0.00, 0.00, 0.000, 0.000, 0.000, 10:30:31.131
137, 44.72, -16.03, 0.00, 0.00, 0.000, 0.000, 0.000, 10:30:31.131
138, 41.29, -20.61, 0.00, 0.00, 0.000, 0.000, 0.000, 10:30:31.131
139, 30.19, -29.10, 0.00, 0.00, 0.000, 0.000, 0.000, 10:30:31.144
140, 31.54, -21.31, 0.00, 0.00, 0.000, 0.000, 0.000, 10:30:31.144
141, 44.52, -18.69, 0.00, 0.00, 0.000, 0.000, 0.000, 10:30:31.159
142, 41.06, -19.47, 0.00, 0.00, 0.000, 0.000, 0.000, 10:30:31.160
143, 26.78, -24.72, 0.00, 0.00, 0.000, 0.000, 0.000, 10:30:31.160
144, 29.18, -21.90, 0.00, 0.00, 0.000, 0.000, 0.000, 10:30:31.160
145, 44.47, -19.37, 0.00, 0.00, 0.000, 0.000, 0.000, 10:30:31.175
146, 45.80, -23.23, 0.00, 0.00, 0.000, 0.000, 0.000, 10:30:31.175
147, 30.28, -25.24, 0.00, 0.00, 0.000, 0.000, 0.000, 10:30:31.205
148, 29.95, -19.89, 0.00, 0.00, 0.000, 0.000, 0.000, 10:30:31.205
149, 43.20, -15.55, 0.00, 0.00, 0.000, 0.000, 0.000, 10:30:31.205
150, 42.30, -23.02, 0.00, 0.00, 0.000, 0.000, 0.000, 10:30:31.205
151, 29.62, -28.14, 0.00, 0.00, 0.000, 0.000, 0.000, 10:30:31.206
152, 32.77, -20.50, 0.00, 0.00, 0.000, 0.000, 0.000, 10:30:31.206
153, 42.36, -23.73, 0.00, 0.00, 0.000, 0.000, 0.000, 10:30:31.213
154, 42.83, -25.00, 0.00, 0.00, 0.000, 0.000, 0.000, 10:30:31.213
155, 26.93, -23.38, 0.00, 0.00, 0.000, 0.000, 0.000, 10:30:31.219
156, 31.70, -23.60, 0.00, 0.00, 0.000, 0.000, 0.000, 10:30:31.220
157, 43.90, -21.22, 0.00, 0.00, 0.000, 0.000, 0.000, 10:30:31.234
158, 40.13, -22.55, 0.00, 0.00, 0.000, 0.000, 0.000, 10:30:31.234
159, 29.90, -25.29, 0.00, 0.00, 0.000, 0.000, 0.000, 10:30:31.249
160, 30.24, -18.55, 0.00, 0.00, 0.000, 0.000, 0.000, 10:30:31.249
161, 43.34, -16.72, 0.00, 0.00, 0.000, 0.000, 0.000, 10:30:31.250
162, 39.81, -21.93, 0.00, 0.00, 0.000, 0.000, 0.000, 10:30:31.250
163, 25.99, -24.53, 0.00, 0.00, 0.000, 0.000, 0.000, 10:30:31.265
164, 27.93, -16.32, 0.00, 0.00, 0.000, 0.000, 0.000, 10:30:31.265
165, 43.23, -18.47, 0.00, 0.00, 0.000, 0.000, 0.000, 10:30:31.280
166, 42.46, -24.13, 0.00, 0.00, 0.000, 0.000, 0.000, 10:30:31.280
167, 29.46, -26.70, 0.00, 0.00, 0.000, 0.000, 0.000, 10:30:31.280
168, 29.45, -23.08, 0.00, 0.00, 0.000, 0.000, 0.000, 10:30:31.280
169, 41.08, -17.54, 0.00, 0.00, 0.000, 0.000, 0.000, 10:30:31.294
170, 39.04, -20.18, 0.00, 0.00, 0.000, 0.000, 0.000, 10:30:31.295
171, 27.45, -23.33, 0.00, 0.00, 0.000, 0.000, 0.000, 10:30:31.310
172, 28.37, -22.20, 0.00, 0.00, 0.000, 0.000, 0.000, 10:30:31.310
173, 40.58, -19.06, 0.00, 0.00, 0.000, 0.000, 0.000, 10:30:31.310
174, 40.08, -23.67, 0.00, 0.00, 0.000, 0.000, 0.000, 10:30:31.310
175, 26.86, -23.03, 0.00, 0.00, 0.000, 0.000, 0.000, 10:30:31.325
176, 29.46, -19.07, 0.00, 0.00, 0.000, 0.000, 0.000, 10:30:31.325
177, 42.78, -19.94, 0.00, 0.00, 0.000, 0.000, 0.000, 10:30:31.340
178, 37.71, -21.63, 0.00, 0.00, 0.000, 0.000, 0.000, 10:30:31.340
179, 27.96, -25.29, 0.00, 0.00, 0.000, 0.000, 0.000, 10:30:31.340
180, 30.43, -21.55, 0.00, 0.00, 0.000, 0.000, 0.000, 10:30:31.340
181, 38.38, -18.62, 0.00, 0.00, 0.000, 0.000, 0.000, 10:30:31.355
182, 38.38, -20.12, 0.00, 0.00, 0.000, 0.000, 0.000, 10:30:31.355
183, 24.10, -25.03, 0.00, 0.00, 0.000, 0.000, 0.000, 10:30:31.370
184, 27.60, -24.83, 0.00, 0.00, 0.000, 0.000, 0.000, 10:30:31.370
185, 40.51, -17.82, 0.00, 0.00, 0.000, 0.000, 0.000, 10:30:31.371
186, 38.79, -21.92, 0.00, 0.00, 0.000, 0.000, 0.000, 10:30:31.371
187, 27.35, -25.11, 0.00, 0.00, 0.000, 0.000, 0.000, 10:30:31.384
188, 27.76, -19.97, 0.00, 0.00, 0.000, 0.000, 0.000, 10:30:31.384
189, 41.13, -21.66, 0.00, 0.00, 0.000, 0.000, 0.000, 10:30:31.399
190, 41.91, -22.47, 0.00, 0.00, 0.000, 0.000, 0.000, 10:30:31.400
191, 25.81, -24.67, 0.00, 0.00, 0.000, 0.000, 0.000, 10:30:31.400
192, 30.47, -20.65, 0.00, 0.00, 0.000, 0.000, 0.000, 10:30:31.400
193, 38.78, -18.74, 0.00, 0.00, 0.000, 0.000, 0.000, 10:30:31.416
194, 37.38, -19.87, 0.00, 0.00, 0.000, 0.000, 0.000, 10:30:31.416
195, 24.87, -22.58, 0.00, 0.00, 0.000, 0.000, 0.000, 10:30:31.429
196, 27.50, -17.26, 0.00, 0.00, 0.000, 0.000, 0.000, 10:30:31.430
197, 40.33, -12.30, 0.00, 0.00, 0.000, 0.000, 0.000, 10:30:31.430
198, 36.20, -23.03, 0.00, 0.00, 0.000, 0.000, 0.000, 10:30:31.430
199, 23.70, -20.87, 0.00, 0.00, 0.000, 0.000, 0.000, 10:30:31.445
200, 27.12, -20.91, 0.00, 0.00, 0.000, 0.000, 0.000, 10:30:31.445
0, 39.81, -21.73, 0.00, 0.00, 0.000, 0.000, 0.000, 10:30:31.445
1, 37.65, -23.88, 0.00, 0.00, 0.000, 0.000, 0.000, 10:30:31.463
2, 26.48, -26.64, 0.00, 0.00, 0.000, 0.000, 0.000, 10:30:31.463
3, 28.19, -21.96, 0.00, 0.00, 0.000, 0.000, 0.000, 10:30:31.475
4, 39.38, -18.88, 0.00, 0.00, 0.000, 0.000, 0.000, 10:30:31.475
5, 37.73, -23.82, 0.00, 0.00, 0.000, 0.000, 0.000, 10:30:31.476
6, 24.24, -24.74, 0.00, 0.00, 0.000, 0.000, 0.000, 10:30:31.476
7, 27.19, -18.90, 0.00, 0.00, 0.000, 0.000, 0.000, 10:30:31.490
8, 38.16, -11.73, 0.00, 0.00, 0.000, 0.000, 0.000, 10:30:31.490
9, 37.03, -19.88, 0.00, 0.00, 0.000, 0.000, 0.000, 10:30:31.505
10, 24.15, -26.55, 0.00, 0.00, 0.000, 0.000, 0.000, 10:30:31.505
11, 26.60, -19.99, 0.00, 0.00, 0.000, 0.000, 0.000, 10:30:31.506
12, 40.37, -18.27, 0.00, 0.00, 0.000, 0.000, 0.000, 10:30:31.506
13, 38.40, -21.25, 0.00, 0.00, 0.000, 0.000, 0.000, 10:30:31.520
14, 24.68, -23.52, 0.00, 0.00, 0.000, 0.000, 0.000, 10:30:31.520
15, 24.78, -17.96, 0.00, 0.00, 0.000, 0.000, 0.000, 10:30:31.535
16, 37.08, -12.86, 0.00, 0.00, 0.000, 0.000, 0.000, 10:30:31.535
17, 34.65, -18.66, 0.00, 0.00, 0.000, 0.000, 0.000, 10:30:31.535
18, 20.38, -22.51, 0.00, 0.00, 0.000, 0.000, 0.000, 10:30:31.535
19, 23.53, -20.12, 0.00, 0.00, 0.000, 0.000, 0.000, 10:30:31.550
20, 35.47, -6.75, 0.00, 0.00, 0.000, 0.000, 0.000, 10:30:31.550
21, 32.21, -20.46, 0.00, 0.00, 0.000, 0.000, 0.000, 10:30:31.565
22, 24.04, -27.44, 0.00, 0.00, 0.000, 0.000, 0.000, 10:30:31.565
23, 25.19, -20.95, 0.00, 0.00, 0.000, 0.000, 0.000, 10:30:31.565
24, 38.28, -15.24, 0.00, 0.00, 0.000, 0.000, 0.000, 10:30:31.566
25, 34.74, -21.15, 0.00, 0.00, 0.000, 0.000, 0.000, 10:30:31.580
26, 20.98, -19.27, 0.00, 0.00, 0.000, 0.000, 0.000, 10:30:31.580
27, 24.91, -18.80, 0.00, 0.00, 0.000, 0.000, 0.000, 10:30:31.609
28, 39.29, -14.04, 0.00, 0.00, 0.000, 0.000, 0.000, 10:30:31.610
29, 38.27, -20.19, 0.00, 0.00, 0.000, 0.000, 0.000, 10:30:31.610
30, 24.47, -24.40, 0.00, 0.00, 0.000, 0.000, 0.000, 10:30:31.610
31, 30.11, -25.59, 0.00, 0.00, 0.000, 0.000, 0.000, 10:30:31.611
32, 43.84, -12.54, 0.00, 0.00, 0.000, 0.000, 0.000, 10:30:31.611
33, 39.73, -23.65, 0.00, 0.00, 0.000, 0.000, 0.000, 10:30:31.612
34, 30.82, -25.51, 0.00, 0.00, 0.000, 0.000, 0.000, 10:30:31.612
35, 31.36, -18.28, 0.00, 0.00, 0.000, 0.000, 0.000, 10:30:31.625
36, 43.47, -18.33, 0.00, 0.00, 0.000, 0.000, 0.000, 10:30:31.625
37, 41.36, -25.25, 0.00, 0.00, 0.000, 0.000, 0.000, 10:30:31.639
38, 30.33, -24.19, 0.00, 0.00, 0.000, 0.000, 0.000, 10:30:31.639
39, 32.05, -23.80, 0.00, 0.00, 0.000, 0.000, 0.000, 10:30:31.654
40, 42.53, -22.56, 0.00, 0.00, 0.000, 0.000, 0.000, 10:30:31.654
41, 37.15, -21.55, 0.00, 0.00, 0.000, 0.000, 0.000, 10:30:31.662
42, 27.80, -22.01, 0.00, 0.00, 0.000, 0.000, 0.000, 10:30:31.662
43, 28.24, -19.76, 0.00, 0.00, 0.000, 0.000, 0.000, 10:30:31.669
44, 40.86, -11.79, 0.00, 0.00, 0.000, 0.000, 0.000, 10:30:31.669
45, 37.24, -21.97, 0.00, 0.00, 0.000, 0.000, 0.000, 10:30:31.684
46, 23.26, -25.60, 0.00, 0.00, 0.000, 0.000, 0.000, 10:30:31.685
47, 26.87, -16.95, 0.00, 0.00, 0.000, 0.000, 0.000, 10:30:31.685
48, 37.07, -13.88, 0.00, 0.00, 0.000, 0.000, 0.000, 10:30:31.685
49, 37.46, -21.36, 0.00, 0.00, 0.000, 0.000, 0.000, 10:30:31.701
50, 26.50, -22.69, 0.00, 0.00, 0.000, 0.000, 0.000, 10:30:31.701
51, 28.88, -21.30, 0.00, 0.00, 0.000, 0.000, 0.000, 10:30:31.715
52, 40.66, -16.99, 0.00, 0.00, 0.000, 0.000, 0.000, 10:30:31.715
53, 36.50, -20.75, 0.00, 0.00, 0.000, 0.000, 0.000, 10:30:31.730
54, 25.02, -22.02, 0.00, 0.00, 0.000, 0.000, 0.000, 10:30:31.730
55, 28.17, -17.56, 0.00, 0.00, 0.000, 0.000, 0.000, 10:30:31.730
56, 44.54, -11.55, 0.00, 0.00, 0.000, 0.000, 0.000, 10:30:31.730
57, 36.14, -17.12, 0.00, 0.00, 0.000, 0.000, 0.000, 10:30:31.731
58, 21.37, -20.93, 0.00, 0.00, 0.000, 0.000, 0.000, 10:30:31.731
59, 27.75, -12.45, 0.00, 0.00, 0.000, 0.000, 0.000, 10:30:31.760
60, 38.35, -17.99, 0.00, 0.00, 0.000, 0.000, 0.000, 10:30:31.760
61, 35.36, -22.54, 0.00, 0.00, 0.000, 0.000, 0.000, 10:30:31.761
62, 20.67, -20.88, 0.00, 0.00, 0.000, 0.000, 0.000, 10:30:31.761
63, 27.05, -22.40, 0.00, 0.00, 0.000, 0.000, 0.000, 10:30:31.775
64, 37.52, -12.43, 0.00, 0.00, 0.000, 0.000, 0.000, 10:30:31.775
65, 33.28, -19.28, 0.00, 0.00, 0.000, 0.000, 0.000, 10:30:31.775
66, 20.59, -26.03, 0.00, 0.00, 0.000, 0.000, 0.000, 10:30:31.775
67, 25.90, -20.01, 0.00, 0.00, 0.000, 0.000, 0.000, 10:30:31.790
68, 39.57, -10.46, 0.00, 0.00, 0.000, 0.000, 0.000, 10:30:31.790
69, 34.86, -16.92, 0.00, 0.00, 0.000, 0.000, 0.000, 10:30:31.805
70, 23.42, -22.54, 0.00, 0.00, 0.000, 0.000, 0.000, 10:30:31.805
71, 26.80, -18.38, 0.00, 0.00, 0.000, 0.000, 0.000, 10:30:31.805
72, 38.47, -19.06, 0.00, 0.00, 0.000, 0.000, 0.000, 10:30:31.806
73, 36.11, -22.67, 0.00, 0.00, 0.000, 0.000, 0.000, 10:30:31.820
74, 20.70, -21.35, 0.00, 0.00, 0.000, 0.000, 0.000, 10:30:31.820
75, 22.45, -16.55, 0.00, 0.00, 0.000, 0.000, 0.000, 10:30:31.835
76, 33.92, -10.05, 0.00, 0.00, 0.000, 0.000, 0.000, 10:30:31.835
77, 30.78, -17.99, 0.00, 0.00, 0.000, 0.000, 0.000, 10:30:31.835
78, 20.39, -23.43, 0.00, 0.00, 0.000, 0.000, 0.000, 10:30:31.835
79, 24.12, -20.29, 0.00, 0.00, 0.000, 0.000, 0.000, 10:30:31.849
80, 36.54, -11.13, 0.00, 0.00, 0.000, 0.000, 0.000, 10:30:31.850
81, 32.51, -21.65, 0.00, 0.00, 0.000, 0.000, 0.000, 10:30:31.864
82, 18.79, -23.64, 0.00, 0.00, 0.000, 0.000, 0.000, 10:30:31.864
83, 24.83, -17.72, 0.00, 0.00, 0.000, 0.000, 0.000, 10:30:31.865
84, 39.65, -9.40, 0.00, 0.00, 0.000, 0.000, 0.000, 10:30:31.865
85, 33.05, -18.58, 0.00, 0.00, 0.000, 0.000, 0.000, 10:30:31.880
86, 17.36, -20.53, 0.00, 0.00, 0.000, 0.000, 0.000, 10:30:31.880
87, 24.21, -19.40, 0.00, 0.00, 0.000, 0.000, 0.000, 10:30:31.895
88, 36.95, -14.15, 0.00, 0.00, 0.000, 0.000, 0.000, 10:30:31.895
89, 33.53, -17.91, 0.00, 0.00, 0.000, 0.000, 0.000, 10:30:31.896
90, 20.25, -21.62, 0.00, 0.00, 0.000, 0.000, 0.000, 10:30:31.896
91, 27.38, -19.58, 0.00, 0.00, 0.000, 0.000, 0.000, 10:30:31.909
92, 39.89, -10.61, 0.00, 0.00, 0.000, 0.000, 0.000, 10:30:31.909
93, 34.66, -20.50, 0.00, 0.00, 0.000, 0.000, 0.000, 10:30:31.926
94, 21.60, -24.11, 0.00, 0.00, 0.000, 0.000, 0.000, 10:30:31.926
95, 27.25, -14.26, 0.00, 0.00, 0.000, 0.000, 0.000, 10:30:31.927
96, 37.96, -15.61, 0.00, 0.00, 0.000, 0.000, 0.000, 10:30:31.927
97, 35.60, -20.03, 0.00, 0.00, 0.000, 0.000, 0.000, 10:30:31.939
98, 21.32, -23.39, 0.00, 0.00, 0.000, 0.000, 0.000, 10:30:31.939
99, 26.09, -16.96, 0.00, 0.00, 0.000, 0.000, 0.000, 10:30:31.955
100, 38.27, -8.92, 0.00, 0.00, 0.000, 0.000, 0.000, 10:30:31.955
101, 36.04, -18.45, 0.00, 0.00, 0.000, 0.000, 0.000, 10:30:31.956
102, 24.65, -23.69, 0.00, 0.00, 0.000, 0.000, 0.000, 10:30:31.956
103, 26.22, -17.04, 0.00, 0.00, 0.000, 0.000, 0.000, 10:30:31.970
104, 38.49, -8.94, 0.00, 0.00, 0.000, 0.000, 0.000, 10:30:31.970
105, 36.63, -22.64, 0.00, 0.00, 0.000, 0.000, 0.000, 10:30:31.985
106, 24.16, -24.01, 0.00, 0.00, 0.000, 0.000, 0.000, 10:30:31.985
107, 30.24, -18.35, 0.00, 0.00, 0.000, 0.000, 0.000, 10:30:31.985
108, 40.50, -19.60, 0.00, 0.00, 0.000, 0.000, 0.000, 10:30:31.985
109, 35.51, -25.35, 0.00, 0.00, 0.000, 0.000, 0.000, 10:30:32.000
110, 23.20, -21.24, 0.00, 0.00, 0.000, 0.000, 0.000, 10:30:32.000
111, 28.05, -16.45, 0.00, 0.00, 0.000, 0.000, 0.000, 10:30:32.015
112, 38.50, -11.89, 0.00, 0.00, 0.000, 0.000, 0.000, 10:30:32.015
113, 35.41, -17.07, 0.00, 0.00, 0.000, 0.000, 0.000, 10:30:32.029
114, 20.12, -22.55, 0.00, 0.00, 0.000, 0.000, 0.000, 10:30:32.029
115, 27.63, -20.14, 0.00, 0.00, 0.000, 0.000, 0.000, 10:30:32.030
116, 41.03, -14.74, 0.00, 0.00, 0.000, 0.000, 0.000, 10:30:32.030
117, 37.32, -20.85, 0.00, 0.00, 0.000, 0.000, 0.000, 10:30:32.044
118, 26.30, -25.43, 0.00, 0.00, 0.000, 0.000, 0.000, 10:30:32.044
119, 28.68, -15.19, 0.00, 0.00, 0.000, 0.000, 0.000, 10:30:32.045
120, 37.01, -10.75, 0.00, 0.00, 0.000, 0.000, 0.000, 10:30:32.045
121, 36.64, -22.71, 0.00, 0.00, 0.000, 0.000, 0.000, 10:30:32.060
122, 22.80, -24.66, 0.00, 0.00, 0.000, 0.000, 0.000, 10:30:32.060
123, 30.30, -17.76, 0.00, 0.00, 0.000, 0.000, 0.000, 10:30:32.074
124, 36.86, -10.96, 0.00, 0.00, 0.000, 0.000, 0.000, 10:30:32.074
125, 35.60, -20.15, 0.00, 0.00, 0.000, 0.000, 0.000, 10:30:32.074
126, 25.32, -22.36, 0.00, 0.00, 0.000, 0.000, 0.000, 10:30:32.075
127, 28.72, -19.35, 0.00, 0.00, 0.000, 0.000, 0.000, 10:30:32.090
128, 39.81, -12.27, 0.00, 0.00, 0.000, 0.000, 0.000, 10:30:32.090
129, 37.53, -19.85, 0.00, 0.00, 0.000, 0.000, 0.000, 10:30:32.104
130, 22.78, -23.92, 0.00, 0.00, 0.000, 0.000, 0.000, 10:30:32.104
131, 26.15, -18.47, 0.00, 0.00, 0.000, 0.000, 0.000, 10:30:32.105
132, 37.63, -16.11, 0.00, 0.00, 0.000, 0.000, 0.000, 10:30:32.105
133, 37.20, -22.96, 0.00, 0.00, 0.000, 0.000, 0.000, 10:30:32.120
134, 22.39, -23.32, 0.00, 0.00, 0.000, 0.000, 0.000, 10:30:32.120
135, 26.96, -20.94, 0.00, 0.00, 0.000, 0.000, 0.000, 10:30:32.135
136, 37.25, -6.60, 0.00, 0.00, 0.000, 0.000, 0.000, 10:30:32.135
137, 35.44, -18.23, 0.00, 0.00, 0.000, 0.000, 0.000, 10:30:32.135
138, 18.59, -25.93, 0.00, 0.00, 0.000, 0.000, 0.000, 10:30:32.136
139, 24.36, -19.62, 0.00, 0.00, 0.000, 0.000, 0.000, 10:30:32.165
140, 37.55, -6.51, 0.00, 0.00, 0.000, 0.000, 0.000, 10:30:32.165
141, 34.56, -21.82, 0.00, 0.00, 0.000, 0.000, 0.000, 10:30:32.165
142, 23.45, -24.60, 0.00, 0.00, 0.000, 0.000, 0.000, 10:30:32.166
143, 27.93, -17.24, 0.00, 0.00, 0.000, 0.000, 0.000, 10:30:32.166
144, 41.04, -13.94, 0.00, 0.00, 0.000, 0.000, 0.000, 10:30:32.166
145, 37.35, -21.76, 0.00, 0.00, 0.000, 0.000, 0.000, 10:30:32.180
146, 23.86, -19.90, 0.00, 0.00, 0.000, 0.000, 0.000, 10:30:32.180
147, 29.31, -18.39, 0.00, 0.00, 0.000, 0.000, 0.000, 10:30:32.194
148, 37.50, -7.25, 0.00, 0.00, 0.000, 0.000, 0.000, 10:30:32.194
149, 32.38, -22.74, 0.00, 0.00, 0.000, 0.000, 0.000, 10:30:32.195
150, 19.64, -25.19, 0.00, 0.00, 0.000, 0.000, 0.000, 10:30:32.195
151, 26.86, -17.34, 0.00, 0.00, 0.000, 0.000, 0.000, 10:30:32.210
152, 37.32, -5.56, 0.00, 0.00, 0.000, 0.000, 0.000, 10:30:32.210
153, 35.29, -13.66, 0.00, 0.00, 0.000, 0.000, 0.000, 10:30:32.225
154, 20.14, -21.80, 0.00, 0.00, 0.000, 0.000, 0.000, 10:30:32.225
155, 25.61, -17.04, 0.00, 0.00, 0.000, 0.000, 0.000, 10:30:32.225
156, 37.93, -15.95, 0.00, 0.00, 0.000, 0.000, 0.000, 10:30:32.225
157, 35.06, -22.11, 0.00, 0.00, 0.000, 0.000, 0.000, 10:30:32.254
158, 22.89, -21.23, 0.00, 0.00, 0.000, 0.000, 0.000, 10:30:32.254
159, 27.05, -17.75, 0.00, 0.00, 0.000, 0.000, 0.000, 10:30:32.255
160, 38.04, -15.16, 0.00, 0.00, 0.000, 0.000, 0.000, 10:30:32.255
161, 35.86, -18.91, 0.00, 0.00, 0.000, 0.000, 0.000, 10:30:32.255
162, 20.34, -22.63, 0.00, 0.00, 0.000, 0.000, 0.000, 10:30:32.255
163, 24.71, -20.32, 0.00, 0.00, 0.000, 0.000, 0.000, 10:30:32.285
164, 37.63, -15.74, 0.00, 0.00, 0.000, 0.000, 0.000, 10:30:32.285
165, 34.90, -20.56, 0.00, 0.00, 0.000, 0.000, 0.000, 10:30:32.285
166, 22.44, -22.53, 0.00, 0.00, 0.000, 0.000, 0.000, 10:30:32.285
167, 30.10, -15.02, 0.00, 0.00, 0.000, 0.000, 0.000, 10:30:32.286
168, 37.22, -17.29, 0.00, 0.00, 0.000, 0.000, 0.000, 10:30:32.286
169, 35.45, -24.28, 0.00, 0.00, 0.000, 0.000, 0.000, 10:30:32.315
170, 25.56, -24.35, 0.00, 0.00, 0.000, 0.000, 0.000, 10:30:32.315
171, 28.84, -21.79, 0.00, 0.00, 0.000, 0.000, 0.000, 10:30:32.315
172, 42.91, -12.41, 0.00, 0.00, 0.000, 0.000, 0.000, 10:30:32.315
173, 37.61, -19.07, 0.00, 0.00, 0.000, 0.000, 0.000, 10:30:32.317
174, 20.58, -20.24, 0.00, 0.00, 0.000, 0.000, 0.000, 10:30:32.317
175, 29.28, -18.44, 0.00, 0.00, 0.000, 0.000, 0.000, 10:30:32.330
176, 40.42, -7.70, 0.00, 0.00, 0.000, 0.000, 0.000, 10:30:32.330
177, 36.22, -21.41, 0.00, 0.00, 0.000, 0.000, 0.000, 10:30:32.344
178, 25.38, -23.80, 0.00, 0.00, 0.000, 0.000, 0.000, 10:30:32.344
179, 26.61, -12.15, 0.00, 0.00, 0.000, 0.000, 0.000, 10:30:32.345
180, 35.61, -7.24, 0.00, 0.00, 0.000, 0.000, 0.000, 10:30:32.345
181, 31.24, -20.10, 0.00, 0.00, 0.000, 0.000, 0.000, 10:30:32.360
182, 20.01, -24.33, 0.00, 0.00, 0.000, 0.000, 0.000, 10:30:32.360
183, 26.03, -18.91, 0.00, 0.00, 0.000, 0.000, 0.000, 10:30:32.375
184, 39.50, -11.66, 0.00, 0.00, 0.000, 0.000, 0.000, 10:30:32.375
185, 38.11, -17.45, 0.00, 0.00, 0.000, 0.000, 0.000, 10:30:32.381
186, 23.00, -26.53, 0.00, 0.00, 0.000, 0.000, 0.000, 10:30:32.382
187, 24.48, -19.92, 0.00, 0.00, 0.000, 0.000, 0.000, 10:30:32.390
188, 37.74, -8.61, 0.00, 0.00, 0.000, 0.000, 0.000, 10:30:32.390
189, 33.18, -20.66, 0.00, 0.00, 0.000, 0.000, 0.000, 10:30:32.404
190, 22.23, -22.66, 0.00, 0.00, 0.000, 0.000, 0.000, 10:30:32.404
191, 25.62, -20.73, 0.00, 0.00, 0.000, 0.000, 0.000, 10:30:32.406
192, 40.04, -12.84, 0.00, 0.00, 0.000, 0.000, 0.000, 10:30:32.406
193, 33.87, -21.00, 0.00, 0.00, 0.000, 0.000, 0.000, 10:30:32.420
194, 20.94, -23.15, 0.00, 0.00, 0.000, 0.000, 0.000, 10:30:32.420
195, 29.27, -21.10, 0.00, 0.00, 0.000, 0.000, 0.000, 10:30:32.435
196, 39.77, -8.31, 0.00, 0.00, 0.000, 0.000, 0.000, 10:30:32.435
197, 34.46, -20.71, 0.00, 0.00, 0.000, 0.000, 0.000, 10:30:32.435
198, 21.18, -22.53, 0.00, 0.00, 0.000, 0.000, 0.000, 10:30:32.435
199, 27.56, -17.82, 0.00, 0.00, 0.000, 0.000, 0.000, 10:30:32.449
200, 36.59, -7.63, 0.00, 0.00, 0.000, 0.000, 0.000, 10:30:32.450
0, 31.66, -19.41, 0.00, 0.00, 0.000, 0.000, 0.000, 10:30:32.450
1, 20.54, -23.93, 0.00, 0.00, 0.000, 0.000, 0.000, 10:30:32.464
2, 24.58, -15.64, 0.00, 0.00, 0.000, 0.000, 0.000, 10:30:32.465
3, 38.17, -10.56, 0.00, 0.00, 0.000, 0.000, 0.000, 10:30:32.479
4, 33.86, -19.24, 0.00, 0.00, 0.000, 0.000, 0.000, 10:30:32.479
5, 18.63, -22.71, 0.00, 0.00, 0.000, 0.000, 0.000, 10:30:32.480
6, 24.07, -20.02, 0.00, 0.00, 0.000, 0.000, 0.000, 10:30:32.480
7, 35.82, -9.07, 0.00, 0.00, 0.000, 0.000, 0.000, 10:30:32.495
8, 30.39, -19.69, 0.00, 0.00, 0.000, 0.000, 0.000, 10:30:32.495
9, 17.61, -24.60, 0.00, 0.00, 0.000, 0.000, 0.000, 10:30:32.510
10, 26.69, -20.86, 0.00, 0.00, 0.000, 0.000, 0.000, 10:30:32.510
11, 37.47, -11.91, 0.00, 0.00, 0.000, 0.000, 0.000, 10:30:32.511
12, 32.76, -22.85, 0.00, 0.00, 0.000, 0.000, 0.000, 10:30:32.511
13, 19.51, -21.08, 0.00, 0.00, 0.000, 0.000, 0.000, 10:30:32.525
14, 25.90, -13.40, 0.00, 0.00, 0.000, 0.000, 0.000, 10:30:32.525
15, 34.20, -11.14, 0.00, 0.00, 0.000, 0.000, 0.000, 10:30:32.540
16, 30.85, -22.89, 0.00, 0.00, 0.000, 0.000, 0.000, 10:30:32.540
17, 19.26, -25.61, 0.00, 0.00, 0.000, 0.000, 0.000, 10:30:32.540
18, 26.59, -17.27, 0.00, 0.00, 0.000, 0.000, 0.000, 10:30:32.540
19, 36.48, -8.70, 0.00, 0.00, 0.000, 0.000, 0.000, 10:30:32.555
20, 32.29, -19.87, 0.00, 0.00, 0.000, 0.000, 0.000, 10:30:32.555
21, 20.91, -27.14, 0.00, 0.00, 0.000, 0.000, 0.000, 10:30:32.570
22, 27.68, -17.71, 0.00, 0.00, 0.000, 0.000, 0.000, 10:30:32.570
23, 36.60, -6.56, 0.00, 0.00, 0.000, 0.000, 0.000, 10:30:32.571
24, 32.74, -23.42, 0.00, 0.00, 0.000, 0.000, 0.000, 10:30:32.571
25, 24.05, -19.47, 0.00, 0.00, 0.000, 0.000, 0.000, 10:30:32.585
26, 27.49, -16.15, 0.00, 0.00, 0.000, 0.000, 0.000, 10:30:32.585
27, 34.87, -13.96, 0.00, 0.00, 0.000, 0.000, 0.000, 10:30:32.600
28, 31.89, -16.94, 0.00, 0.00, 0.000, 0.000, 0.000, 10:30:32.600
29, 19.86, -23.01, 0.00, 0.00, 0.000, 0.000, 0.000, 10:30:32.600
30, 28.11, -20.26, 0.00, 0.00, 0.000, 0.000, 0.000, 10:30:32.601
31, 36.26, -15.54, 0.00, 0.00, 0.000, 0.000, 0.000, 10:30:32.615
32, 35.18, -15.79, 0.00, 0.00, 0.000, 0.000, 0.000, 10:30:32.615
33, 20.09, -22.22, 0.00, 0.00, 0.000, 0.000, 0.000, 10:30:32.630
34, 28.61, -18.28, 0.00, 0.00, 0.000, 0.000, 0.000, 10:30:32.630
35, 39.99, -10.02, 0.00, 0.00, 0.000, 0.000, 0.000, 10:30:32.630
36, 34.32, -23.15, 0.00, 0.00, 0.000, 0.000, 0.000, 10:30:32.630
37, 19.91, -20.47, 0.00, 0.00, 0.000, 0.000, 0.000, 10:30:32.644
38, 25.84, -12.18, 0.00, 0.00, 0.000, 0.000, 0.000, 10:30:32.645
39, 36.30, -6.59, 0.00, 0.00, 0.000, 0.000, 0.000, 10:30:32.660
40, 33.36, -17.90, 0.00, 0.00, 0.000, 0.000, 0.000, 10:30:32.660
41, 18.51, -20.29, 0.00, 0.00, 0.000, 0.000, 0.000, 10:30:32.660
42, 24.65, -18.84, 0.00, 0.00, 0.000, 0.000, 0.000, 10:30:32.661
43, 35.56, -4.71, 0.00, 0.00, 0.000, 0.000, 0.000, 10:30:32.675
44, 31.19, -17.86, 0.00, 0.00, 0.000, 0.000, 0.000, 10:30:32.675
45, 15.38, -21.31, 0.00, 0.00, 0.000, 0.000, 0.000, 10:30:32.689
46, 26.58, -18.90, 0.00, 0.00, 0.000, 0.000, 0.000, 10:30:32.689
47, 38.63, -10.23, 0.00, 0.00, 0.000, 0.000, 0.000, 10:30:32.690
48, 32.46, -20.63, 0.00, 0.00, 0.000, 0.000, 0.000, 10:30:32.690
49, 17.82, -20.41, 0.00, 0.00, 0.000, 0.000, 0.000, 10:30:32.720
50, 23.75, -17.73, 0.00, 0.00, 0.000, 0.000, 0.000, 10:30:32.720
51, 33.36, -14.33, 0.00, 0.00, 0.000, 0.000, 0.000, 10:30:32.720
52, 31.66, -18.08, 0.00, 0.00, 0.000, 0.000, 0.000, 10:30:32.720
53, 17.54, -22.16, 0.00, 0.00, 0.000, 0.000, 0.000, 10:30:32.721
54, 23.93, -21.99, 0.00, 0.00, 0.000, 0.000, 0.000, 10:30:32.721
55, 35.13, -15.41, 0.00, 0.00, 0.000, 0.000, 0.000, 10:30:32.735
56, 30.30, -15.37, 0.00, 0.00, 0.000, 0.000, 0.000, 10:30:32.735
57, 19.49, -22.04, 0.00, 0.00, 0.000, 0.000, 0.000, 10:30:32.750
58, 28.54, -17.25, 0.00, 0.00, 0.000, 0.000, 0.000, 10:30:32.750
59, 33.70, -13.28, 0.00, 0.00, 0.000, 0.000, 0.000, 10:30:32.757
60, 31.04, -18.66, 0.00, 0.00, 0.000, 0.000, 0.000, 10:30:32.758
61, 18.45, -19.08, 0.00, 0.00, 0.000, 0.000, 0.000, 10:30:32.764
62, 27.41, -13.97, 0.00, 0.00, 0.000, 0.000, 0.000, 10:30:32.764
63, 35.93, -13.42, 0.00, 0.00, 0.000, 0.000, 0.000, 10:30:32.780
64, 32.48, -20.96, 0.00, 0.00, 0.000, 0.000, 0.000, 10:30:32.780
65, 15.84, -21.93, 0.00, 0.00, 0.000, 0.000, 0.000, 10:30:32.780
66, 25.77, -20.07, 0.00, 0.00, 0.000, 0.000, 0.000, 10:30:32.781
67, 38.27, -8.27, 0.00, 0.00, 0.000, 0.000, 0.000, 10:30:32.794
68, 30.63, -19.43, 0.00, 0.00, 0.000, 0.000, 0.000, 10:30:32.794
69, 16.49, -23.15, 0.00, 0.00, 0.000, 0.000, 0.000, 10:30:32.810
70, 26.41, -18.37, 0.00, 0.00, 0.000, 0.000, 0.000, 10:30:32.810
71, 38.30, -10.72, 0.00, 0.00, 0.000, 0.000, 0.000, 10:30:32.811
72, 32.17, -20.95, 0.00, 0.00, 0.000, 0.000, 0.000, 10:30:32.811
73, 22.96, -24.11, 0.00, 0.00, 0.000, 0.000, 0.000, 10:30:32.825
74, 27.06, -15.51, 0.00, 0.00, 0.000, 0.000, 0.000, 10:30:32.825
75, 38.28, -11.92, 0.00, 0.00, 0.000, 0.000, 0.000, 10:30:32.840
76, 33.20, -22.95, 0.00, 0.00, 0.000, 0.000, 0.000, 10:30:32.840
77, 22.45, -19.77, 0.00, 0.00, 0.000, 0.000, 0.000, 10:30:32.841
78, 26.17, -16.46, 0.00, 0.00, 0.000, 0.000, 0.000, 10:30:32.841
79, 36.95, -15.47, 0.00, 0.00, 0.000, 0.000, 0.000, 10:30:32.870
80, 33.55, -20.26, 0.00, 0.00, 0.000, 0.000, 0.000, 10:30:32.870
81, 21.34, -24.16, 0.00, 0.00, 0.000, 0.000, 0.000, 10:30:32.870
82, 28.61, -17.94, 0.00, 0.00, 0.000, 0.000, 0.000, 10:30:32.870
83, 39.04, -6.56, 0.00, 0.00, 0.000, 0.000, 0.000, 10:30:32.871
84, 36.90, -24.37, 0.00, 0.00, 0.000, 0.000, 0.000, 10:30:32.871
85, 22.80, -24.52, 0.00, 0.00, 0.000, 0.000, 0.000, 10:30:32.885
86, 29.85, -14.15, 0.00, 0.00, 0.000, 0.000, 0.000, 10:30:32.885
87, 38.53, -12.41, 0.00, 0.00, 0.000, 0.000, 0.000, 10:30:32.900
88, 35.66, -20.52, 0.00, 0.00, 0.000, 0.000, 0.000, 10:30:32.900
89, 19.32, -19.40, 0.00, 0.00, 0.000, 0.000, 0.000, 10:30:32.900
90, 27.47, -13.69, 0.00, 0.00, 0.000, 0.000, 0.000, 10:30:32.900
91, 40.38, -12.34, 0.00, 0.00, 0.000, 0.000, 0.000, 10:30:32.915
92, 31.62, -16.04, 0.00, 0.00, 0.000, 0.000, 0.000, 10:30:32.915
93, 20.13, -23.39, 0.00, 0.00, 0.000, 0.000, 0.000, 10:30:32.930
94, 28.17, -17.19, 0.00, 0.00, 0.000, 0.000, 0.000, 10:30:32.930
95, 40.93, -6.38, 0.00, 0.00, 0.000, 0.000, 0.000, 10:30:32.930
96, 33.73, -21.43, 0.00, 0.00, 0.000, 0.000, 0.000, 10:30:32.930
97, 21.50, -20.86, 0.00, 0.00, 0.000, 0.000, 0.000, 10:30:32.944
98, 28.64, -13.32, 0.00, 0.00, 0.000, 0.000, 0.000, 10:30:32.944
99, 36.63, -13.38, 0.00, 0.00, 0.000, 0.000, 0.000, 10:30:32.960
100, 34.34, -20.80, 0.00, 0.00, 0.000, 0.000, 0.000, 10:30:32.960
101, 22.58, -21.98, 0.00, 0.00, 0.000, 0.000, 0.000, 10:30:32.960
102, 30.87, -16.35, 0.00, 0.00, 0.000, 0.000, 0.000, 10:30:32.960
103, 40.71, -17.64, 0.00, 0.00, 0.000, 0.000, 0.000, 10:30:32.976
104, 32.35, -17.92, 0.00, 0.00, 0.000, 0.000, 0.000, 10:30:32.977
105, 21.62, -22.36, 0.00, 0.00, 0.000, 0.000, 0.000, 10:30:32.990
106, 27.87, -18.41, 0.00, 0.00, 0.000, 0.000, 0.000, 10:30:32.990
107, 38.94, -5.89, 0.00, 0.00, 0.000, 0.000, 0.000, 10:30:32.990
108, 37.51, -19.43, 0.00, 0.00, 0.000, 0.000, 0.000, 10:30:32.990
109, 26.87, -24.26, 0.00, 0.00, 0.000, 0.000, 0.000, 10:30:33.004
110, 28.55, -12.45, 0.00, 0.00, 0.000, 0.000, 0.000, 10:30:33.004
111, 39.86, -13.37, 0.00, 0.00, 0.000, 0.000, 0.000, 10:30:33.020
112, 34.16, -22.37, 0.00, 0.00, 0.000, 0.000, 0.000, 10:30:33.020
113, 23.68, -23.76, 0.00, 0.00, 0.000, 0.000, 0.000, 10:30:33.020
114, 32.18, -14.50, 0.00, 0.00, 0.000, 0.000, 0.000, 10:30:33.020
115, 40.02, -5.70, 0.00, 0.00, 0.000, 0.000, 0.000, 10:30:33.034
116, 35.40, -15.19, 0.00, 0.00, 0.000, 0.000, 0.000, 10:30:33.034
117, 24.44, -21.90, 0.00, 0.00, 0.000, 0.000, 0.000, 10:30:33.050
118, 32.36, -16.75, 0.00, 0.00, 0.000, 0.000, 0.000, 10:30:33.050
119, 40.49, -10.75, 0.00, 0.00, 0.000, 0.000, 0.000, 10:30:33.050
120, 36.32, -20.04, 0.00, 0.00, 0.000, 0.000, 0.000, 10:30:33.050
121, 22.59, -21.80, 0.00, 0.00, 0.000, 0.000, 0.000, 10:30:33.065
122, 29.18, -10.96, 0.00, 0.00, 0.000, 0.000, 0.000, 10:30:33.065
123, 40.10, -9.37, 0.00, 0.00, 0.000, 0.000, 0.000, 10:30:33.080
124, 34.42, -20.27, 0.00, 0.00, 0.000, 0.000, 0.000, 10:30:33.080
125, 22.23, -21.88, 0.00, 0.00, 0.000, 0.000, 0.000, 10:30:33.080
126, 27.77, -18.90, 0.00, 0.00, 0.000, 0.000, 0.000, 10:30:33.080
127, 39.97, -10.25, 0.00, 0.00, 0.000, 0.000, 0.000, 10:30:33.094
128, 33.51, -18.03, 0.00, 0.00, 0.000, 0.000, 0.000, 10:30:33.095
129, 22.27, -24.87, 0.00, 0.00, 0.000, 0.000, 0.000, 10:30:33.111
130, 27.88, -19.23, 0.00, 0.00, 0.000, 0.000, 0.000, 10:30:33.111
131, 39.01, -1.97, 0.00, 0.00, 0.000, 0.000, 0.000, 10:30:33.112
132, 28.50, -18.56, 0.00, 0.00, 0.000, 0.000, 0.000, 10:30:33.112
133, 19.59, -25.83, 0.00, 0.00, 0.000, 0.000, 0.000, 10:30:33.125
134, 26.75, -11.16, 0.00, 0.00, 0.000, 0.000, 0.000, 10:30:33.125
135, 36.69, -4.54, 0.00, 0.00, 0.000, 0.000, 0.000, 10:30:33.140
136, 30.08, -20.26, 0.00, 0.00, 0.000, 0.000, 0.000, 10:30:33.140
137, 15.02, -26.54, 0.00, 0.00, 0.000, 0.000, 0.000, 10:30:33.140
138, 24.59, -19.02, 0.00, 0.00, 0.000, 0.000, 0.000, 10:30:33.140
139, 36.59, -11.47, 0.00, 0.00, 0.000, 0.000, 0.000, 10:30:33.155
140, 31.34, -20.01, 0.00, 0.00, 0.000, 0.000, 0.000, 10:30:33.155
141, 19.29, -23.76, 0.00, 0.00, 0.000, 0.000, 0.000, 10:30:33.169
142, 26.72, -17.74, 0.00, 0.00, 0.000, 0.000, 0.000, 10:30:33.170
143, 34.76, -8.53, 0.00, 0.00, 0.000, 0.000, 0.000, 10:30:33.170
144, 28.38, -19.22, 0.00, 0.00, 0.000, 0.000, 0.000, 10:30:33.170
145, 15.35, -23.04, 0.00, 0.00, 0.000, 0.000, 0.000, 10:30:33.185
146, 23.66, -15.34, 0.00, 0.00, 0.000, 0.000, 0.000, 10:30:33.185
147, 35.87, -13.75, 0.00, 0.00, 0.000, 0.000, 0.000, 10:30:33.200
148, 31.73, -25.09, 0.00, 0.00, 0.000, 0.000, 0.000, 10:30:33.200
149, 18.37, -23.89, 0.00, 0.00, 0.000, 0.000, 0.000, 10:30:33.207
150, 26.82, -21.25, 0.00, 0.00, 0.000, 0.000, 0.000, 10:30:33.207
151, 36.73, -17.25, 0.00, 0.00, 0.000, 0.000, 0.000, 10:30:33.214
152, 31.85, -21.13, 0.00, 0.00, 0.000, 0.000, 0.000, 10:30:33.214
153, 20.40, -24.36, 0.00, 0.00, 0.000, 0.000, 0.000, 10:30:33.230
154, 26.28, -19.85, 0.00, 0.00, 0.000, 0.000, 0.000, 10:30:33.230
155, 36.67, -10.50, 0.00, 0.00, 0.000, 0.000, 0.000, 10:30:33.230
156, 33.49, -22.33, 0.00, 0.00, 0.000, 0.000, 0.000, 10:30:33.231
157, 17.36, -25.83, 0.00, 0.00, 0.000, 0.000, 0.000, 10:30:33.245
158, 25.61, -13.79, 0.00, 0.00, 0.000, 0.000, 0.000, 10:30:33.245
159, 37.87, -9.73, 0.00, 0.00, 0.000, 0.000, 0.000, 10:30:33.275
160, 29.53, -19.92, 0.00, 0.00, 0.000, 0.000, 0.000, 10:30:33.275
161, 17.35, -24.35, 0.00, 0.00, 0.000, 0.000, 0.000, 10:30:33.275
162, 24.12, -16.83, 0.00, 0.00, 0.000, 0.000, 0.000, 10:30:33.275
163, 36.15, -7.07, 0.00, 0.00, 0.000, 0.000, 0.000, 10:30:33.275
164, 30.83, -18.29, 0.00, 0.00, 0.000, 0.000, 0.000, 10:30:33.276
165, 18.90, -24.27, 0.00, 0.00, 0.000, 0.000, 0.000, 10:30:33.277
166, 26.53, -21.78, 0.00, 0.00, 0.000, 0.000, 0.000, 10:30:33.277
167, 38.94, -7.79, 0.00, 0.00, 0.000, 0.000, 0.000, 10:30:33.289
168, 30.94, -17.07, 0.00, 0.00, 0.000, 0.000, 0.000, 10:30:33.289
169, 16.49, -21.15, 0.00, 0.00, 0.000, 0.000, 0.000, 10:30:33.306
170, 28.88, -16.71, 0.00, 0.00, 0.000, 0.000, 0.000, 10:30:33.306
171, 39.86, -12.94, 0.00, 0.00, 0.000, 0.000, 0.000, 10:30:33.319
172, 30.73, -22.36, 0.00, 0.00, 0.000, 0.000, 0.000, 10:30:33.319
173, 19.54, -25.04, 0.00, 0.00, 0.000, 0.000, 0.000, 10:30:33.321
174, 27.16, -21.42, 0.00, 0.00, 0.000, 0.000, 0.000, 10:30:33.321
175, 36.46, -15.70, 0.00, 0.00, 0.000, 0.000, 0.000, 10:30:33.335
176, 33.53, -19.55, 0.00, 0.00, 0.000, 0.000, 0.000, 10:30:33.335
177, 19.88, -25.26, 0.00, 0.00, 0.000, 0.000, 0.000, 10:30:33.350
178, 27.91, -18.43, 0.00, 0.00, 0.000, 0.000, 0.000, 10:30:33.350
179, 39.43, -13.32, 0.00, 0.00, 0.000, 0.000, 0.000, 10:30:33.350
180, 33.18, -22.86, 0.00, 0.00, 0.000, 0.000, 0.000, 10:30:33.350
181, 19.57, -25.84, 0.00, 0.00, 0.000, 0.000, 0.000, 10:30:33.364
182, 28.54, -13.96, 0.00, 0.00, 0.000, 0.000, 0.000, 10:30:33.365
183, 38.80, -16.39, 0.00, 0.00, 0.000, 0.000, 0.000, 10:30:33.380
184, 33.06, -22.04, 0.00, 0.00, 0.000, 0.000, 0.000, 10:30:33.380
185, 19.32, -23.19, 0.00, 0.00, 0.000, 0.000, 0.000, 10:30:33.381
186, 27.94, -18.45, 0.00, 0.00, 0.000, 0.000, 0.000, 10:30:33.381
187, 38.88, -17.70, 0.00, 0.00, 0.000, 0.000, 0.000, 10:30:33.394
188, 32.17, -20.98, 0.00, 0.00, 0.000, 0.000, 0.000, 10:30:33.394
189, 21.46, -22.73, 0.00, 0.00, 0.000, 0.000, 0.000, 10:30:33.424
190, 27.95, -19.65, 0.00, 0.00, 0.000, 0.000, 0.000, 10:30:33.425
191, 40.58, -10.98, 0.00, 0.00, 0.000, 0.000, 0.000, 10:30:33.425
192, 32.40, -20.93, 0.00, 0.00, 0.000, 0.000, 0.000, 10:30:33.425
193, 21.64, -21.44, 0.00, 0.00, 0.000, 0.000, 0.000, 10:30:33.426
194, 26.35, -15.83, 0.00, 0.00, 0.000, 0.000, 0.000, 10:30:33.426
195, 35.86, -15.26, 0.00, 0.00, 0.000, 0.000, 0.000, 10:30:33.426
196, 31.86, -22.95, 0.00, 0.00, 0.000, 0.000, 0.000, 10:30:33.426
197, 20.75, -25.95, 0.00, 0.00, 0.000, 0.000, 0.000, 10:30:33.439
198, 25.49, -20.55, 0.00, 0.00, 0.000, 0.000, 0.000, 10:30:33.440
199, 36.22, -18.87, 0.00, 0.00, 0.000, 0.000, 0.000, 10:30:33.455
200, 30.54, -17.73, 0.00, 0.00, 0.000, 0.000, 0.000, 10:30:33.455
0, 15.98, -21.94, 0.00, 0.00, 0.000, 0.000, 0.000, 10:30:33.457
1, 27.36, -17.45, 0.00, 0.00, 0.000, 0.000, 0.000, 10:30:33.476
2, 37.78, -12.19, 0.00, 0.00, 0.000, 0.000, 0.000, 10:30:33.476
3, 31.75, -22.56, 0.00, 0.00, 0.000, 0.000, 0.000, 10:30:33.484
4, 21.77, -24.67, 0.00, 0.00, 0.000, 0.000, 0.000, 10:30:33.484
5, 29.51, -13.86, 0.00, 0.00, 0.000, 0.000, 0.000, 10:30:33.485
6, 41.18, -14.49, 0.00, 0.00, 0.000, 0.000, 0.000, 10:30:33.485
7, 35.93, -23.79, 0.00, 0.00, 0.000, 0.000, 0.000, 10:30:33.500
8, 23.14, -24.44, 0.00, 0.00, 0.000, 0.000, 0.000, 10:30:33.500
9, 29.91, -21.59, 0.00, 0.00, 0.000, 0.000, 0.000, 10:30:33.515
10, 46.72, -17.57, 0.00, 0.00, 0.000, 0.000, 0.000, 10:30:33.515
11, 34.54, -16.91, 0.00, 0.00, 0.000, 0.000, 0.000, 10:30:33.516
12, 22.46, -22.37, 0.00, 0.00, 0.000, 0.000, 0.000, 10:30:33.516
13, 31.44, -20.87, 0.00, 0.00, 0.000, 0.000, 0.000, 10:30:33.530
14, 39.86, -17.83, 0.00, 0.00, 0.000, 0.000, 0.000, 10:30:33.530
15, 33.79, -20.86, 0.00, 0.00, 0.000, 0.000, 0.000, 10:30:33.544
16, 24.24, -23.11, 0.00, 0.00, 0.000, 0.000, 0.000, 10:30:33.544
17, 30.03, -13.69, 0.00, 0.00, 0.000, 0.000, 0.000, 10:30:33.545
18, 39.36, -11.36, 0.00, 0.00, 0.000, 0.000, 0.000, 10:30:33.545
19, 32.52, -19.03, 0.00, 0.00, 0.000, 0.000, 0.000, 10:30:33.559
20, 20.32, -21.87, 0.00, 0.00, 0.000, 0.000, 0.000, 10:30:33.559
21, 28.59, -16.68, 0.00, 0.00, 0.000, 0.000, 0.000, 10:30:33.575
22, 37.42, -14.83, 0.00, 0.00, 0.000, 0.000, 0.000, 10:30:33.575
23, 30.99, -21.87, 0.00, 0.00, 0.000, 0.000, 0.000, 10:30:33.575
24, 21.84, -23.83, 0.00, 0.00, 0.000, 0.000, 0.000, 10:30:33.575
25, 31.59, -17.98, 0.00, 0.00, 0.000, 0.000, 0.000, 10:30:33.590
26, 39.36, -12.08, 0.00, 0.00, 0.000, 0.000, 0.000, 10:30:33.590
27, 35.01, -25.36, 0.00, 0.00, 0.000, 0.000, 0.000, 10:30:33.604
28, 20.39, -22.74, 0.00, 0.00, 0.000, 0.000, 0.000, 10:30:33.604
29, 29.84, -17.76, 0.00, 0.00, 0.000, 0.000, 0.000, 10:30:33.605
30, 39.99, -15.79, 0.00, 0.00, 0.000, 0.000, 0.000, 10:30:33.605
31, 30.83, -24.40, 0.00, 0.00, 0.000, 0.000, 0.000, 10:30:33.621
32, 15.76, -23.23, 0.00, 0.00, 0.000, 0.000, 0.000, 10:30:33.621
33, 24.23, -16.84, 0.00, 0.00, 0.000, 0.000, 0.000, 10:30:33.635
34, 34.21, -15.53, 0.00, 0.00, 0.000, 0.000, 0.000, 10:30:33.635
35, 31.34, -19.63, 0.00, 0.00, 0.000, 0.000, 0.000, 10:30:33.635
36, 18.24, -22.27, 0.00, 0.00, 0.000, 0.000, 0.000, 10:30:33.635
37, 26.78, -17.07, 0.00, 0.00, 0.000, 0.000, 0.000, 10:30:33.649
38, 36.98, -7.15, 0.00, 0.00, 0.000, 0.000, 0.000, 10:30:33.649
39, 30.24, -22.27, 0.00, 0.00, 0.000, 0.000, 0.000, 10:30:33.664
40, 17.96, -27.75, 0.00, 0.00, 0.000, 0.000, 0.000, 10:30:33.664
41, 25.09, -19.04, 0.00, 0.00, 0.000, 0.000, 0.000, 10:30:33.665
42, 39.44, -11.99, 0.00, 0.00, 0.000, 0.000, 0.000, 10:30:33.665
43, 33.18, -22.43, 0.00, 0.00, 0.000, 0.000, 0.000, 10:30:33.680
44, 17.53, -24.08, 0.00, 0.00, 0.000, 0.000, 0.000, 10:30:33.681
45, 26.09, -14.38, 0.00, 0.00, 0.000, 0.000, 0.000, 10:30:33.694
46, 37.00, -11.99, 0.00, 0.00, 0.000, 0.000, 0.000, 10:30:33.694
47, 30.81, -21.32, 0.00, 0.00, 0.000, 0.000, 0.000, 10:30:33.695
48, 19.87, -23.42, 0.00, 0.00, 0.000, 0.000, 0.000, 10:30:33.695
49, 27.30, -16.43, 0.00, 0.00, 0.000, 0.000, 0.000, 10:30:33.711
50, 38.75, -15.63, 0.00, 0.00, 0.000, 0.000, 0.000, 10:30:33.711
51, 30.22, -21.49, 0.00, 0.00, 0.000, 0.000, 0.000, 10:30:33.725
52, 21.10, -22.46, 0.00, 0.00, 0.000, 0.000, 0.000, 10:30:33.725
53, 28.13, -14.83, 0.00, 0.00, 0.000, 0.000, 0.000, 10:30:33.726
54, 36.88, -15.79, 0.00, 0.00, 0.000, 0.000, 0.000, 10:30:33.726
55, 30.92, -19.91, 0.00, 0.00, 0.000, 0.000, 0.000, 10:30:33.740
56, 16.34, -21.83, 0.00, 0.00, 0.000, 0.000, 0.000, 10:30:33.740
57, 27.59, -16.49, 0.00, 0.00, 0.000, 0.000, 0.000, 10:30:33.755
58, 37.04, -10.89, 0.00, 0.00, 0.000, 0.000, 0.000, 10:30:33.755
59, 30.55, -21.35, 0.00, 0.00, 0.000, 0.000, 0.000, 10:30:33.755
60, 15.08, -26.13, 0.00, 0.00, 0.000, 0.000, 0.000, 10:30:33.755
61, 27.68, -19.72, 0.00, 0.00, 0.000, 0.000, 0.000, 10:30:33.769
62, 36.70, -2.86, 0.00, 0.00, 0.000, 0.000, 0.000, 10:30:33.769
63, 28.86, -14.71, 0.00, 0.00, 0.000, 0.000, 0.000, 10:30:33.785
64, 16.95, -23.64, 0.00, 0.00, 0.000, 0.000, 0.000, 10:30:33.785
65, 27.87, -17.65, 0.00, 0.00, 0.000, 0.000, 0.000, 10:30:33.785
66, 40.62, -19.75, 0.00, 0.00, 0.000, 0.000, 0.000, 10:30:33.786
67, 35.98, -25.74, 0.00, 0.00, 0.000, 0.000, 0.000, 10:30:33.799
68, 17.82, -22.63, 0.00, 0.00, 0.000, 0.000, 0.000, 10:30:33.799
69, 27.59, -22.88, 0.00, 0.00, 0.000, 0.000, 0.000, 10:30:33.815
70, 38.43, -22.13, 0.00, 0.00, 0.000, 0.000, 0.000, 10:30:33.815
71, 31.62, -21.09, 0.00, 0.00, 0.000, 0.000, 0.000, 10:30:33.830
72, 21.33, -24.96, 0.00, 0.00, 0.000, 0.000, 0.000, 10:30:33.830
73, 30.25, -18.56, 0.00, 0.00, 0.000, 0.000, 0.000, 10:30:33.830
74, 41.28, -11.77, 0.00, 0.00, 0.000, 0.000, 0.000, 10:30:33.830
75, 33.22, -22.31, 0.00, 0.00, 0.000, 0.000, 0.000, 10:30:33.844
76, 19.72, -25.95, 0.00, 0.00, 0.000, 0.000, 0.000, 10:30:33.844
77, 29.53, -15.99, 0.00, 0.00, 0.000, 0.000, 0.000, 10:30:33.845
78, 40.05, -20.75, 0.00, 0.00, 0.000, 0.000, 0.000, 10:30:33.845
79, 30.82, -25.16, 0.00, 0.00, 0.000, 0.000, 0.000, 10:30:33.860
80, 17.97, -28.34, 0.00, 0.00, 0.000, 0.000, 0.000, 10:30:33.860
81, 29.62, -21.74, 0.00, 0.00, 0.000, 0.000, 0.000, 10:30:33.875
82, 44.16, -22.23, 0.00, 0.00, 0.000, 0.000, 0.000, 10:30:33.875
83, 33.37, -17.28, 0.00, 0.00, 0.000, 0.000, 0.000, 10:30:33.876
84, 21.72, -21.58, 0.00, 0.00, 0.000, 0.000, 0.000, 10:30:33.876
85, 32.99, -16.49, 0.00, 0.00, 0.000, 0.000, 0.000, 10:30:33.896
86, 41.35, -20.28, 0.00, 0.00, 0.000, 0.000, 0.000, 10:30:33.897
87, 34.77, -22.25, 0.00, 0.00, 0.000, 0.000, 0.000, 10:30:33.904
88, 22.96, -23.83, 0.00, 0.00, 0.000, 0.000, 0.000, 10:30:33.905
89, 30.03, -19.21, 0.00, 0.00, 0.000, 0.000, 0.000, 10:30:33.905
90, 42.07, -20.51, 0.00, 0.00, 0.000, 0.000, 0.000, 10:30:33.905
91, 36.28, -23.82, 0.00, 0.00, 0.000, 0.000, 0.000, 10:30:33.920
92, 26.16, -23.12, 0.00, 0.00, 0.000, 0.000, 0.000, 10:30:33.920
93, 29.67, -21.17, 0.00, 0.00, 0.000, 0.000, 0.000, 10:30:33.935
94, 42.54, -18.20, 0.00, 0.00, 0.000, 0.000, 0.000, 10:30:33.935
95, 32.48, -21.78, 0.00, 0.00, 0.000, 0.000, 0.000, 10:30:33.935
96, 21.45, -24.41, 0.00, 0.00, 0.000, 0.000, 0.000, 10:30:33.936
97, 35.35, -20.88, 0.00, 0.00, 0.000, 0.000, 0.000, 10:30:33.951
98, 41.19, -16.47, 0.00, 0.00, 0.000, 0.000, 0.000, 10:30:33.951
99, 34.25, -21.43, 0.00, 0.00, 0.000, 0.000, 0.000, 10:30:33.979
100, 25.69, -25.52, 0.00, 0.00, 0.000, 0.000, 0.000, 10:30:33.979
101, 32.75, -17.40, 0.00, 0.00, 0.000, 0.000, 0.000, 10:30:33.980
102, 44.54, -18.71, 0.00, 0.00, 0.000, 0.000, 0.000, 10:30:33.980
103, 36.03, -24.23, 0.00, 0.00, 0.000, 0.000, 0.000, 10:30:33.981
104, 23.89, -21.58, 0.00, 0.00, 0.000, 0.000, 0.000, 10:30:33.981
105, 37.31, -17.82, 0.00, 0.00, 0.000, 0.000, 0.000, 10:30:33.981
106, 47.35, -20.58, 0.00, 0.00, 0.000, 0.000, 0.000, 10:30:33.982
107, 36.25, -21.19, 0.00, 0.00, 0.000, 0.000, 0.000, 10:30:33.995
108, 26.45, -21.54, 0.00, 0.00, 0.000, 0.000, 0.000, 10:30:33.995
109, 33.95, -16.86, 0.00, 0.00, 0.000, 0.000, 0.000, 10:30:34.010
110, 43.80, -15.61, 0.00, 0.00, 0.000, 0.000, 0.000, 10:30:34.010
111, 36.61, -23.88, 0.00, 0.00, 0.000, 0.000, 0.000, 10:30:34.025
112, 23.60, -22.12, 0.00, 0.00, 0.000, 0.000, 0.000, 10:30:34.025
113, 36.35, -19.84, 0.00, 0.00, 0.000, 0.000, 0.000, 10:30:34.025
114, 43.89, -18.12, 0.00, 0.00, 0.000, 0.000, 0.000, 10:30:34.025
115, 35.55, -21.15, 0.00, 0.00, 0.000, 0.000, 0.000, 10:30:34.039
116, 22.07, -22.73, 0.00, 0.00, 0.000, 0.000, 0.000, 10:30:34.039
117, 33.75, -18.12, 0.00, 0.00, 0.000, 0.000, 0.000, 10:30:34.056
118, 46.71, -18.14, 0.00, 0.00, 0.000, 0.000, 0.000, 10:30:34.056
119, 37.11, -22.09, 0.00, 0.00, 0.000, 0.000, 0.000, 10:30:34.056
120, 26.05, -24.36, 0.00, 0.00, 0.000, 0.000, 0.000, 10:30:34.056
121, 37.60, -18.04, 0.00, 0.00, 0.000, 0.000, 0.000, 10:30:34.070
122, 44.64, -15.70, 0.00, 0.00, 0.000, 0.000, 0.000, 10:30:34.070
123, 34.16, -19.63, 0.00, 0.00, 0.000, 0.000, 0.000, 10:30:34.085
124, 22.22, -21.33, 0.00, 0.00, 0.000, 0.000, 0.000, 10:30:34.085
125, 30.93, -12.73, 0.00, 0.00, 0.000, 0.000, 0.000, 10:30:34.086
126, 41.65, -12.01, 0.00, 0.00, 0.000, 0.000, 0.000, 10:30:34.086
127, 32.89, -22.86, 0.00, 0.00, 0.000, 0.000, 0.000, 10:30:34.100
128, 23.67, -20.57, 0.00, 0.00, 0.000, 0.000, 0.000, 10:30:34.100
129, 28.69, -19.66, 0.00, 0.00, 0.000, 0.000, 0.000, 10:30:34.129
130, 38.44, -16.62, 0.00, 0.00, 0.000, 0.000, 0.000, 10:30:34.129
131, 33.57, -19.83, 0.00, 0.00, 0.000, 0.000, 0.000, 10:30:34.129
132, 21.67, -19.85, 0.00, 0.00, 0.000, 0.000, 0.000, 10:30:34.129
133, 30.74, -15.59, 0.00, 0.00, 0.000, 0.000, 0.000, 10:30:34.131
134, 37.56, -15.33, 0.00, 0.00, 0.000, 0.000, 0.000, 10:30:34.131
135, 34.41, -21.32, 0.00, 0.00, 0.000, 0.000, 0.000, 10:30:34.131
136, 23.11, -22.79, 0.00, 0.00, 0.000, 0.000, 0.000, 10:30:34.131
137, 29.12, -10.28, 0.00, 0.00, 0.000, 0.000, 0.000, 10:30:34.144
138, 42.08, -16.05, 0.00, 0.00, 0.000, 0.000, 0.000, 10:30:34.145
139, 34.84, -20.35, 0.00, 0.00, 0.000, 0.000, 0.000, 10:30:34.175
140, 21.81, -24.23, 0.00, 0.00, 0.000, 0.000, 0.000, 10:30:34.175
141, 32.22, -14.59, 0.00, 0.00, 0.000, 0.000, 0.000, 10:30:34.175
142, 44.81, -16.81, 0.00, 0.00, 0.000, 0.000, 0.000, 10:30:34.175
143, 36.26, -21.75, 0.00, 0.00, 0.000, 0.000, 0.000, 10:30:34.176
144, 24.09, -23.41, 0.00, 0.00, 0.000, 0.000, 0.000, 10:30:34.177
145, 32.34, -20.16, 0.00, 0.00, 0.000, 0.000, 0.000, 10:30:34.190
146, 40.68, -14.19, 0.00, 0.00, 0.000, 0.000, 0.000, 10:30:34.190
147, 32.83, -21.92, 0.00, 0.00, 0.000, 0.000, 0.000, 10:30:34.205
148, 21.65, -20.31, 0.00, 0.00, 0.000, 0.000, 0.000, 10:30:34.205
149, 30.50, -11.05, 0.00, 0.00, 0.000, 0.000, 0.000, 10:30:34.212
150, 39.65, -12.57, 0.00, 0.00, 0.000, 0.000, 0.000, 10:30:34.212
151, 33.00, -21.57, 0.00, 0.00, 0.000, 0.000, 0.000, 10:30:34.220
152, 22.55, -22.07, 0.00, 0.00, 0.000, 0.000, 0.000, 10:30:34.220
153, 30.23, -13.78, 0.00, 0.00, 0.000, 0.000, 0.000, 10:30:34.235
154, 37.93, -11.86, 0.00, 0.00, 0.000, 0.000, 0.000, 10:30:34.235
155, 27.39, -19.55, 0.00, 0.00, 0.000, 0.000, 0.000, 10:30:34.236
156, 20.12, -21.27, 0.00, 0.00, 0.000, 0.000, 0.000, 10:30:34.236
157, 28.98, -14.13, 0.00, 0.00, 0.000, 0.000, 0.000, 10:30:34.249
158, 38.27, 1.21, 0.00, 0.00, 0.000, 0.000, 0.000, 10:30:34.250
159, 29.44, -15.83, 0.00, 0.00, 0.000, 0.000, 0.000, 10:30:34.265
160, 16.71, -23.75, 0.00, 0.00, 0.000, 0.000, 0.000, 10:30:34.265
161, 26.84, -14.68, 0.00, 0.00, 0.000, 0.000, 0.000, 10:30:34.265
162, 35.96, -12.21, 0.00, 0.00, 0.000, 0.000, 0.000, 10:30:34.265
163, 26.61, -20.69, 0.00, 0.00, 0.000, 0.000, 0.000, 10:30:34.280
164, 15.25, -20.63, 0.00, 0.00, 0.000, 0.000, 0.000, 10:30:34.280
165, 26.22, -17.02, 0.00, 0.00, 0.000, 0.000, 0.000, 10:30:34.294
166, 34.99, -8.76, 0.00, 0.00, 0.000, 0.000, 0.000, 10:30:34.295
167, 26.18, -19.79, 0.00, 0.00, 0.000, 0.000, 0.000, 10:30:34.296
168, 17.80, -24.37, 0.00, 0.00, 0.000, 0.000, 0.000, 10:30:34.297
169, 29.69, -19.31, 0.00, 0.00, 0.000, 0.000, 0.000, 10:30:34.310
170, 34.40, -9.95, 0.00, 0.00, 0.000, 0.000, 0.000, 10:30:34.311
171, 30.35, -24.04, 0.00, 0.00, 0.000, 0.000, 0.000, 10:30:34.324
172, 19.43, -22.66, 0.00, 0.00, 0.000, 0.000, 0.000, 10:30:34.324
173, 25.84, -15.49, 0.00, 0.00, 0.000, 0.000, 0.000, 10:30:34.325
174, 34.80, -12.96, 0.00, 0.00, 0.000, 0.000, 0.000, 10:30:34.325
175, 28.96, -22.21, 0.00, 0.00, 0.000, 0.000, 0.000, 10:30:34.340
176, 19.08, -23.36, 0.00, 0.00, 0.000, 0.000, 0.000, 10:30:34.340
177, 26.67, -16.99, 0.00, 0.00, 0.000, 0.000, 0.000, 10:30:34.355
178, 36.74, -13.95, 0.00, 0.00, 0.000, 0.000, 0.000, 10:30:34.355
179, 24.85, -20.75, 0.00, 0.00, 0.000, 0.000, 0.000, 10:30:34.355
180, 17.92, -25.25, 0.00, 0.00, 0.000, 0.000, 0.000, 10:30:34.355
181, 29.33, -19.53, 0.00, 0.00, 0.000, 0.000, 0.000, 10:30:34.385
182, 42.71, -10.11, 0.00, 0.00, 0.000, 0.000, 0.000, 10:30:34.385
183, 30.20, -22.44, 0.00, 0.00, 0.000, 0.000, 0.000, 10:30:34.385
184, 17.75, -28.20, 0.00, 0.00, 0.000, 0.000, 0.000, 10:30:34.385
185, 29.92, -12.29, 0.00, 0.00, 0.000, 0.000, 0.000, 10:30:34.386
186, 38.79, -20.35, 0.00, 0.00, 0.000, 0.000, 0.000, 10:30:34.386
187, 31.87, -25.63, 0.00, 0.00, 0.000, 0.000, 0.000, 10:30:34.399
188, 15.25, -22.80, 0.00, 0.00, 0.000, 0.000, 0.000, 10:30:34.399
189, 27.21, -16.75, 0.00, 0.00, 0.000, 0.000, 0.000, 10:30:34.415
190, 35.49, -8.37, 0.00, 0.00, 0.000, 0.000, 0.000, 10:30:34.415
191, 27.59, -19.09, 0.00, 0.00, 0.000, 0.000, 0.000, 10:30:34.415
192, 18.62, -27.50, 0.00, 0.00, 0.000, 0.000, 0.000, 10:30:34.416
193, 25.95, -19.55, 0.00, 0.00, 0.000, 0.000, 0.000, 10:30:34.429
194, 35.24, -7.05, 0.00, 0.00, 0.000, 0.000, 0.000, 10:30:34.429
195, 25.44, -22.75, 0.00, 0.00, 0.000, 0.000, 0.000, 10:30:34.444
196, 18.00, -26.90, 0.00, 0.00, 0.000, 0.000, 0.000, 10:30:34.444
197, 27.66, -17.67, 0.00, 0.00, 0.000, 0.000, 0.000, 10:30:34.445
198, 37.94, -17.55, 0.00, 0.00, 0.000, 0.000, 0.000, 10:30:34.445
199, 29.12, -28.56, 0.00, 0.00, 0.000, 0.000, 0.000, 10:30:34.459
200, 16.35, -21.74, 0.00, 0.00, 0.000, 0.000, 0.000, 10:30:34.459
0, 26.87, -19.83, 0.00, 0.00, 0.000, 0.000, 0.000, 10:30:34.459
1, 34.61, -15.38, 0.00, 0.00, 0.000, 0.000, 0.000, 10:30:34.474
2, 28.76, -20.57, 0.00, 0.00, 0.000, 0.000, 0.000, 10:30:34.474
3, 20.91, -26.64, 0.00, 0.00, 0.000, 0.000, 0.000, 10:30:34.489
4, 32.58, -20.94, 0.00, 0.00, 0.000, 0.000, 0.000, 10:30:34.489
5, 39.80, -13.69, 0.00, 0.00, 0.000, 0.000, 0.000, 10:30:34.489
6, 30.72, -26.65, 0.00, 0.00, 0.000, 0.000, 0.000, 10:30:34.490
7, 23.25, -25.23, 0.00, 0.00, 0.000, 0.000, 0.000, 10:30:34.505
8, 32.14, -17.03, 0.00, 0.00, 0.000, 0.000, 0.000, 10:30:34.505
9, 40.12, -24.21, 0.00, 0.00, 0.000, 0.000, 0.000, 10:30:34.535
10, 33.57, -24.04, 0.00, 0.00, 0.000, 0.000, 0.000, 10:30:34.535
11, 20.38, -24.46, 0.00, 0.00, 0.000, 0.000, 0.000, 10:30:34.535
12, 34.26, -17.01, 0.00, 0.00, 0.000, 0.000, 0.000, 10:30:34.535
13, 39.86, -23.64, 0.00, 0.00, 0.000, 0.000, 0.000, 10:30:34.536
14, 31.36, -28.75, 0.00, 0.00, 0.000, 0.000, 0.000, 10:30:34.536
15, 21.64, -24.46, 0.00, 0.00, 0.000, 0.000, 0.000, 10:30:34.537
16, 30.42, -17.75, 0.00, 0.00, 0.000, 0.000, 0.000, 10:30:34.537
17, 37.37, -18.37, 0.00, 0.00, 0.000, 0.000, 0.000, 10:30:34.550
18, 31.18, -20.88, 0.00, 0.00, 0.000, 0.000, 0.000, 10:30:34.550
19, 19.43, -27.95, 0.00, 0.00, 0.000, 0.000, 0.000, 10:30:34.564
20, 30.40, -8.69, 0.00, 0.00, 0.000, 0.000, 0.000, 10:30:34.565
21, 37.61, -13.10, 0.00, 0.00, 0.000, 0.000, 0.000, 10:30:34.580
22, 29.64, -24.65, 0.00, 0.00, 0.000, 0.000, 0.000, 10:30:34.580
23, 17.14, -22.55, 0.00, 0.00, 0.000, 0.000, 0.000, 10:30:34.580
24, 30.22, -18.82, 0.00, 0.00, 0.000, 0.000, 0.000, 10:30:34.581
25, 38.91, -20.91, 0.00, 0.00, 0.000, 0.000, 0.000, 10:30:34.595
26, 30.79, -22.42, 0.00, 0.00, 0.000, 0.000, 0.000, 10:30:34.595
27, 20.30, -23.59, 0.00, 0.00, 0.000, 0.000, 0.000, 10:30:34.609
28, 30.52, -17.58, 0.00, 0.00, 0.000, 0.000, 0.000, 10:30:34.609
29, 41.18, -14.68, 0.00, 0.00, 0.000, 0.000, 0.000, 10:30:34.610
30, 31.03, -22.76, 0.00, 0.00, 0.000, 0.000, 0.000, 10:30:34.610
31, 20.57, -22.86, 0.00, 0.00, 0.000, 0.000, 0.000, 10:30:34.624
32, 31.79, -16.54, 0.00, 0.00, 0.000, 0.000, 0.000, 10:30:34.624
33, 42.58, -24.96, 0.00, 0.00, 0.000, 0.000, 0.000, 10:30:34.639
34, 34.98, -26.29, 0.00, 0.00, 0.000, 0.000, 0.000, 10:30:34.639
35, 26.08, -25.65, 0.00, 0.00, 0.000, 0.000, 0.000, 10:30:34.640
36, 33.89, -21.08, 0.00, 0.00, 0.000, 0.000, 0.000, 10:30:34.640
37, 42.25, -18.58, 0.00, 0.00, 0.000, 0.000, 0.000, 10:30:34.655
38, 36.69, -22.01, 0.00, 0.00, 0.000, 0.000, 0.000, 10:30:34.655
39, 27.23, -25.74, 0.00, 0.00, 0.000, 0.000, 0.000, 10:30:34.670
40, 33.99, -21.62, 0.00, 0.00, 0.000, 0.000, 0.000, 10:30:34.670
41, 45.64, -17.06, 0.00, 0.00, 0.000, 0.000, 0.000, 10:30:34.670
42, 32.99, -23.29, 0.00, 0.00, 0.000, 0.000, 0.000, 10:30:34.670
43, 25.34, -24.75, 0.00, 0.00, 0.000, 0.000, 0.000, 10:30:34.686
44, 32.05, -16.94, 0.00, 0.00, 0.000, 0.000, 0.000, 10:30:34.686
45, 42.50, -24.25, 0.00, 0.00, 0.000, 0.000, 0.000, 10:30:34.699
46, 29.43, -24.56, 0.00, 0.00, 0.000, 0.000, 0.000, 10:30:34.700
47, 23.43, -23.28, 0.00, 0.00, 0.000, 0.000, 0.000, 10:30:34.700
48, 27.77, -14.90, 0.00, 0.00, 0.000, 0.000, 0.000, 10:30:34.700
49, 38.21, -20.31, 0.00, 0.00, 0.000, 0.000, 0.000, 10:30:34.714
50, 29.83, -20.00, 0.00, 0.00, 0.000, 0.000, 0.000, 10:30:34.715
51, 21.27, -18.74, 0.00, 0.00, 0.000, 0.000, 0.000, 10:30:34.729
52, 30.81, -17.69, 0.00, 0.00, 0.000, 0.000, 0.000, 10:30:34.729
53, 39.89, -16.70, 0.00, 0.00, 0.000, 0.000, 0.000, 10:30:34.730
54, 31.37, -23.82, 0.00, 0.00, 0.000, 0.000, 0.000, 10:30:34.730
55, 24.99, -20.97, 0.00, 0.00, 0.000, 0.000, 0.000, 10:30:34.744
56, 30.84, -11.79, 0.00, 0.00, 0.000, 0.000, 0.000, 10:30:34.745
57, 40.16, -13.91, 0.00, 0.00, 0.000, 0.000, 0.000, 10:30:34.760
58, 32.32, -23.93, 0.00, 0.00, 0.000, 0.000, 0.000, 10:30:34.760
59, 23.07, -18.44, 0.00, 0.00, 0.000, 0.000, 0.000, 10:30:34.760
60, 30.95, -18.05, 0.00, 0.00, 0.000, 0.000, 0.000, 10:30:34.760
61, 40.96, -13.71, 0.00, 0.00, 0.000, 0.000, 0.000, 10:30:34.774
62, 33.41, -20.52, 0.00, 0.00, 0.000, 0.000, 0.000, 10:30:34.774
63, 21.34, -22.60, 0.00, 0.00, 0.000, 0.000, 0.000, 10:30:34.789
64, 33.57, -19.00, 0.00, 0.00, 0.000, 0.000, 0.000, 10:30:34.789
65, 40.17, -15.77, 0.00, 0.00, 0.000, 0.000, 0.000, 10:30:34.790
66, 32.94, -24.31, 0.00, 0.00, 0.000, 0.000, 0.000, 10:30:34.790
67, 25.37, -25.11, 0.00, 0.00, 0.000, 0.000, 0.000, 10:30:34.821
68, 28.81, -7.59, 0.00, 0.00, 0.000, 0.000, 0.000, 10:30:34.821
69, 39.63, -13.55, 0.00, 0.00, 0.000, 0.000, 0.000, 10:30:34.822
70, 34.02, -22.45, 0.00, 0.00, 0.000, 0.000, 0.000, 10:30:34.822
71, 21.78, -23.44, 0.00, 0.00, 0.000, 0.000, 0.000, 10:30:34.822
72, 30.08, -15.50, 0.00, 0.00, 0.000, 0.000, 0.000, 10:30:34.822
73, 39.59, -11.87, 0.00, 0.00, 0.000, 0.000, 0.000, 10:30:34.835
74, 30.45, -17.69, 0.00, 0.00, 0.000, 0.000, 0.000, 10:30:34.835
75, 18.80, -20.51, 0.00, 0.00, 0.000, 0.000, 0.000, 10:30:34.850
76, 30.32, -12.58, 0.00, 0.00, 0.000, 0.000, 0.000, 10:30:34.850
77, 36.49, -7.63, 0.00, 0.00, 0.000, 0.000, 0.000, 10:30:34.850
78, 31.88, -20.23, 0.00, 0.00, 0.000, 0.000, 0.000, 10:30:34.850
79, 23.66, -22.46, 0.00, 0.00, 0.000, 0.000, 0.000, 10:30:34.864
80, 32.96, -10.59, 0.00, 0.00, 0.000, 0.000, 0.000, 10:30:34.864
81, 38.61, -8.86, 0.00, 0.00, 0.000, 0.000, 0.000, 10:30:34.880
82, 31.84, -19.26, 0.00, 0.00, 0.000, 0.000, 0.000, 10:30:34.880
83, 19.60, -22.03, 0.00, 0.00, 0.000, 0.000, 0.000, 10:30:34.880
84, 32.11, -16.49, 0.00, 0.00, 0.000, 0.000, 0.000, 10:30:34.880
85, 40.42, -12.88, 0.00, 0.00, 0.000, 0.000, 0.000, 10:30:34.894
86, 34.84, -19.40, 0.00, 0.00, 0.000, 0.000, 0.000, 10:30:34.894
87, 22.21, -20.17, 0.00, 0.00, 0.000, 0.000, 0.000, 10:30:34.910
88, 31.71, -9.98, 0.00, 0.00, 0.000, 0.000, 0.000, 10:30:34.910
89, 38.70, -9.74, 0.00, 0.00, 0.000, 0.000, 0.000, 10:30:34.911
90, 33.17, -20.21, 0.00, 0.00, 0.000, 0.000, 0.000, 10:30:34.911
91, 23.08, -24.28, 0.00, 0.00, 0.000, 0.000, 0.000, 10:30:34.939
92, 33.14, -9.76, 0.00, 0.00, 0.000, 0.000, 0.000, 10:30:34.939
93, 39.18, -14.83, 0.00, 0.00, 0.000, 0.000, 0.000, 10:30:34.940
94, 31.24, -24.34, 0.00, 0.00, 0.000, 0.000, 0.000, 10:30:34.940
95, 20.78, -22.68, 0.00, 0.00, 0.000, 0.000, 0.000, 10:30:34.955
96, 28.09, -13.09, 0.00, 0.00, 0.000, 0.000, 0.000, 10:30:34.955
97, 36.96, -14.69, 0.00, 0.00, 0.000, 0.000, 0.000, 10:30:34.955
98, 30.79, -17.91, 0.00, 0.00, 0.000, 0.000, 0.000, 10:30:34.955
99, 22.54, -20.41, 0.00, 0.00, 0.000, 0.000, 0.000, 10:30:34.970
100, 32.40, -13.36, 0.00, 0.00, 0.000, 0.000, 0.000, 10:30:34.970
101, 37.89, -7.91, 0.00, 0.00, 0.000, 0.000, 0.000, 10:30:34.971
102, 31.98, -20.00, 0.00, 0.00, 0.000, 0.000, 0.000, 10:30:34.971
103, 20.84, -23.14, 0.00, 0.00, 0.000, 0.000, 0.000, 10:30:34.985
104, 31.14, -10.50, 0.00, 0.00, 0.000, 0.000, 0.000, 10:30:34.985
105, 39.03, -16.20, 0.00, 0.00, 0.000, 0.000, 0.000, 10:30:35.000
106, 32.79, -21.39, 0.00, 0.00, 0.000, 0.000, 0.000, 10:30:35.000
107, 22.83, -23.10, 0.00, 0.00, 0.000, 0.000, 0.000, 10:30:35.000
108, 32.40, -14.82, 0.00, 0.00, 0.000, 0.000, 0.000, 10:30:35.000
109, 42.03, -19.21, 0.00, 0.00, 0.000, 0.000, 0.000, 10:30:35.015
110, 28.93, -19.22, 0.00, 0.00, 0.000, 0.000, 0.000, 10:30:35.015
111, 18.96, -20.63, 0.00, 0.00, 0.000, 0.000, 0.000, 10:30:35.030
112, 32.38, -15.96, 0.00, 0.00, 0.000, 0.000, 0.000, 10:30:35.030
113, 35.35, -6.38, 0.00, 0.00, 0.000, 0.000, 0.000, 10:30:35.030
114, 26.46, -19.20, 0.00, 0.00, 0.000, 0.000, 0.000, 10:30:35.030
115, 18.10, -21.95, 0.00, 0.00, 0.000, 0.000, 0.000, 10:30:35.044
116, 25.93, -11.39, 0.00, 0.00, 0.000, 0.000, 0.000, 10:30:35.044
117, 33.13, -9.05, 0.00, 0.00, 0.000, 0.000, 0.000, 10:30:35.059
118, 29.56, -22.73, 0.00, 0.00, 0.000, 0.000, 0.000, 10:30:35.059
119, 16.92, -22.09, 0.00, 0.00, 0.000, 0.000, 0.000, 10:30:35.060
120, 32.19, -16.65, 0.00, 0.00, 0.000, 0.000, 0.000, 10:30:35.060
121, 38.14, -18.02, 0.00, 0.00, 0.000, 0.000, 0.000, 10:30:35.074
122, 30.29, -19.27, 0.00, 0.00, 0.000, 0.000, 0.000, 10:30:35.074
123, 18.95, -21.68, 0.00, 0.00, 0.000, 0.000, 0.000, 10:30:35.090
124, 29.95, -19.92, 0.00, 0.00, 0.000, 0.000, 0.000, 10:30:35.090
125, 35.57, -15.56, 0.00, 0.00, 0.000, 0.000, 0.000, 10:30:35.090
126, 29.81, -21.87, 0.00, 0.00, 0.000, 0.000, 0.000, 10:30:35.090
127, 18.71, -24.34, 0.00, 0.00, 0.000, 0.000, 0.000, 10:30:35.104
128, 31.31, -9.15, 0.00, 0.00, 0.000, 0.000, 0.000, 10:30:35.104
129, 34.61, -9.47, 0.00, 0.00, 0.000, 0.000, 0.000, 10:30:35.120
130, 24.26, -21.41, 0.00, 0.00, 0.000, 0.000, 0.000, 10:30:35.120
131, 14.73, -22.38, 0.00, 0.00, 0.000, 0.000, 0.000, 10:30:35.120
132, 28.74, -18.41, 0.00, 0.00, 0.000, 0.000, 0.000, 10:30:35.120
133, 39.06, -19.74, 0.00, 0.00, 0.000, 0.000, 0.000, 10:30:35.135
134, 30.92, -20.78, 0.00, 0.00, 0.000, 0.000, 0.000, 10:30:35.135
135, 16.90, -23.42, 0.00, 0.00, 0.000, 0.000, 0.000, 10:30:35.149
136, 28.54, -18.13, 0.00, 0.00, 0.000, 0.000, 0.000, 10:30:35.149
137, 36.52, -18.10, 0.00, 0.00, 0.000, 0.000, 0.000, 10:30:35.150
138, 28.08, -21.17, 0.00, 0.00, 0.000, 0.000, 0.000, 10:30:35.150
139, 18.51, -24.56, 0.00, 0.00, 0.000, 0.000, 0.000, 10:30:35.164
140, 29.22, -15.15, 0.00, 0.00, 0.000, 0.000, 0.000, 10:30:35.164
141, 34.86, -20.06, 0.00, 0.00, 0.000, 0.000, 0.000, 10:30:35.182
142, 29.54, -26.02, 0.00, 0.00, 0.000, 0.000, 0.000, 10:30:35.182
143, 21.30, -23.83, 0.00, 0.00, 0.000, 0.000, 0.000, 10:30:35.182
144, 31.51, -19.34, 0.00, 0.00, 0.000, 0.000, 0.000, 10:30:35.183
145, 39.56, -21.84, 0.00, 0.00, 0.000, 0.000, 0.000, 10:30:35.195
146, 32.40, -21.32, 0.00, 0.00, 0.000, 0.000, 0.000, 10:30:35.195
147, 20.16, -22.02, 0.00, 0.00, 0.000, 0.000, 0.000, 10:30:35.210
148, 30.21, -18.38, 0.00, 0.00, 0.000, 0.000, 0.000, 10:30:35.210
149, 39.81, -19.22, 0.00, 0.00, 0.000, 0.000, 0.000, 10:30:35.210
150, 30.36, -25.41, 0.00, 0.00, 0.000, 0.000, 0.000, 10:30:35.210
151, 22.16, -27.29, 0.00, 0.00, 0.000, 0.000, 0.000, 10:30:35.224
152, 31.15, -18.44, 0.00, 0.00, 0.000, 0.000, 0.000, 10:30:35.224
153, 40.37, -22.55, 0.00, 0.00, 0.000, 0.000, 0.000, 10:30:35.240
154, 31.99, -20.26, 0.00, 0.00, 0.000, 0.000, 0.000, 10:30:35.241
155, 16.65, -24.98, 0.00, 0.00, 0.000, 0.000, 0.000, 10:30:35.241
156, 31.26, -21.05, 0.00, 0.00, 0.000, 0.000, 0.000, 10:30:35.241
157, 38.46, -20.02, 0.00, 0.00, 0.000, 0.000, 0.000, 10:30:35.254
158, 28.85, -22.27, 0.00, 0.00, 0.000, 0.000, 0.000, 10:30:35.254
159, 19.75, -24.55, 0.00, 0.00, 0.000, 0.000, 0.000, 10:30:35.270
160, 31.71, -20.32, 0.00, 0.00, 0.000, 0.000, 0.000, 10:30:35.270
161, 39.11, -11.75, 0.00, 0.00, 0.000, 0.000, 0.000, 10:30:35.270
162, 28.88, -20.48, 0.00, 0.00, 0.000, 0.000, 0.000, 10:30:35.270
163, 16.76, -23.56, 0.00, 0.00, 0.000, 0.000, 0.000, 10:30:35.285
164, 30.30, -8.81, 0.00, 0.00, 0.000, 0.000, 0.000, 10:30:35.285
165, 39.91, -20.43, 0.00, 0.00, 0.000, 0.000, 0.000, 10:30:35.299
166, 32.54, -26.66, 0.00, 0.00, 0.000, 0.000, 0.000, 10:30:35.299
167, 21.50, -25.96, 0.00, 0.00, 0.000, 0.000, 0.000, 10:30:35.300
168, 31.36, -18.54, 0.00, 0.00, 0.000, 0.000, 0.000, 10:30:35.300
169, 38.97, -20.25, 0.00, 0.00, 0.000, 0.000, 0.000, 10:30:35.315
170, 30.92, -21.99, 0.00, 0.00, 0.000, 0.000, 0.000, 10:30:35.315
171, 21.39, -19.81, 0.00, 0.00, 0.000, 0.000, 0.000, 10:30:35.330
172, 33.71, -18.99, 0.00, 0.00, 0.000, 0.000, 0.000, 10:30:35.330
173, 42.94, -17.81, 0.00, 0.00, 0.000, 0.000, 0.000, 10:30:35.330
174, 33.54, -21.70, 0.00, 0.00, 0.000, 0.000, 0.000, 10:30:35.330
175, 26.18, -24.15, 0.00, 0.00, 0.000, 0.000, 0.000, 10:30:35.345
176, 33.17, -14.31, 0.00, 0.00, 0.000, 0.000, 0.000, 10:30:35.345
177, 42.15, -18.72, 0.00, 0.00, 0.000, 0.000, 0.000, 10:30:35.362
178, 35.00, -21.89, 0.00, 0.00, 0.000, 0.000, 0.000, 10:30:35.362
179, 25.82, -21.20, 0.00, 0.00, 0.000, 0.000, 0.000, 10:30:35.362
180, 33.37, -17.60, 0.00, 0.00, 0.000, 0.000, 0.000, 10:30:35.362
181, 45.64, -20.35, 0.00, 0.00, 0.000, 0.000, 0.000, 10:30:35.374
182, 34.39, -26.01, 0.00, 0.00, 0.000, 0.000, 0.000, 10:30:35.375
183, 28.43, -22.33, 0.00, 0.00, 0.000, 0.000, 0.000, 10:30:35.390
184, 35.33, -19.26, 0.00, 0.00, 0.000, 0.000, 0.000, 10:30:35.390
185, 43.40, -19.47, 0.00, 0.00, 0.000, 0.000, 0.000, 10:30:35.397
186, 33.77, -21.93, 0.00, 0.00, 0.000, 0.000, 0.000, 10:30:35.397
187, 26.98, -20.59, 0.00, 0.00, 0.000, 0.000, 0.000, 10:30:35.404
188, 35.52, -8.99, 0.00, 0.00, 0.000, 0.000, 0.000, 10:30:35.404
189, 43.66, -19.36, 0.00, 0.00, 0.000, 0.000, 0.000, 10:30:35.420
190, 34.97, -24.73, 0.00, 0.00, 0.000, 0.000, 0.000, 10:30:35.420
191, 26.95, -21.34, 0.00, 0.00, 0.000, 0.000, 0.000, 10:30:35.420
192, 34.60, -14.72, 0.00, 0.00, 0.000, 0.000, 0.000, 10:30:35.420
193, 45.44, -19.25, 0.00, 0.00, 0.000, 0.000, 0.000, 10:30:35.435
194, 36.72, -20.33, 0.00, 0.00, 0.000, 0.000, 0.000, 10:30:35.435
195, 26.31, -19.67, 0.00, 0.00, 0.000, 0.000, 0.000, 10:30:35.450
196, 34.63, -13.32, 0.00, 0.00, 0.000, 0.000, 0.000, 10:30:35.450
197, 41.89, -15.55, 0.00, 0.00, 0.000, 0.000, 0.000, 10:30:35.451
198, 34.58, -23.42, 0.00, 0.00, 0.000, 0.000, 0.000, 10:30:35.451
199, 19.39, -24.88, 0.00, 0.00, 0.000, 0.000, 0.000, 10:30:35.464
200, 36.31, -12.64, 0.00, 0.00, 0.000, 0.000, 0.000, 10:30:35.464
0, 40.97, -13.73, 0.00, 0.00, 0.000, 0.000, 0.000, 10:30:35.465
1, 31.79, -21.09, 0.00, 0.00, 0.000, 0.000, 0.000, 10:30:35.480
2, 20.98, -18.71, 0.00, 0.00, 0.000, 0.000, 0.000, 10:30:35.480
3, 35.24, -14.02, 0.00, 0.00, 0.000, 0.000, 0.000, 10:30:35.495
4, 41.65, -10.13, 0.00, 0.00, 0.000, 0.000, 0.000, 10:30:35.495
5, 32.67, -19.22, 0.00, 0.00, 0.000, 0.000, 0.000, 10:30:35.496
6, 22.93, -21.85, 0.00, 0.00, 0.000, 0.000, 0.000, 10:30:35.496
7, 34.87, -10.58, 0.00, 0.00, 0.000, 0.000, 0.000, 10:30:35.525
8, 41.18, -8.58, 0.00, 0.00, 0.000, 0.000, 0.000, 10:30:35.525
9, 30.26, -23.77, 0.00, 0.00, 0.000, 0.000, 0.000, 10:30:35.525
10, 20.08, -26.27, 0.00, 0.00, 0.000, 0.000, 0.000, 10:30:35.525
11, 32.97, -12.90, 0.00, 0.00, 0.000, 0.000, 0.000, 10:30:35.525
12, 36.76, -13.99, 0.00, 0.00, 0.000, 0.000, 0.000, 10:30:35.526
13, 26.36, -21.60, 0.00, 0.00, 0.000, 0.000, 0.000, 10:30:35.540
14, 19.06, -20.68, 0.00, 0.00, 0.000, 0.000, 0.000, 10:30:35.540
15, 30.53, -14.26, 0.00, 0.00, 0.000, 0.000, 0.000, 10:30:35.555
16, 35.53, -13.10, 0.00, 0.00, 0.000, 0.000, 0.000, 10:30:35.555
17, 29.40, -21.29, 0.00, 0.00, 0.000, 0.000, 0.000, 10:30:35.555
18, 17.39, -20.23, 0.00, 0.00, 0.000, 0.000, 0.000, 10:30:35.555
19, 30.37, -17.10, 0.00, 0.00, 0.000, 0.000, 0.000, 10:30:35.570
20, 35.83, -6.88, 0.00, 0.00, 0.000, 0.000, 0.000, 10:30:35.570
21, 26.28, -21.74, 0.00, 0.00, 0.000, 0.000, 0.000, 10:30:35.585
22, 14.71, -25.30, 0.00, 0.00, 0.000, 0.000, 0.000, 10:30:35.585
23, 29.27, -10.66, 0.00, 0.00, 0.000, 0.000, 0.000, 10:30:35.585
24, 35.12, -13.47, 0.00, 0.00, 0.000, 0.000, 0.000, 10:30:35.585
25, 26.57, -21.41, 0.00, 0.00, 0.000, 0.000, 0.000, 10:30:35.600
26, 15.16, -23.22, 0.00, 0.00, 0.000, 0.000, 0.000, 10:30:35.600
27, 29.09, -15.24, 0.00, 0.00, 0.000, 0.000, 0.000, 10:30:35.614
28, 37.74, -16.50, 0.00, 0.00, 0.000, 0.000, 0.000, 10:30:35.615
29, 27.25, -22.99, 0.00, 0.00, 0.000, 0.000, 0.000, 10:30:35.616
30, 17.95, -23.53, 0.00, 0.00, 0.000, 0.000, 0.000, 10:30:35.616
31, 30.13, -14.97, 0.00, 0.00, 0.000, 0.000, 0.000, 10:30:35.629
32, 35.67, -10.09, 0.00, 0.00, 0.000, 0.000, 0.000, 10:30:35.629
33, 27.20, -20.54, 0.00, 0.00, 0.000, 0.000, 0.000, 10:30:35.645
34, 21.76, -20.91, 0.00, 0.00, 0.000, 0.000, 0.000, 10:30:35.645
35, 30.77, -10.65, 0.00, 0.00, 0.000, 0.000, 0.000, 10:30:35.645
36, 36.87, -14.92, 0.00, 0.00, 0.000, 0.000, 0.000, 10:30:35.645
37, 27.59, -24.73, 0.00, 0.00, 0.000, 0.000, 0.000, 10:30:35.660
38, 17.49, -27.09, 0.00, 0.00, 0.000, 0.000, 0.000, 10:30:35.660
39, 30.67, -16.13, 0.00, 0.00, 0.000, 0.000, 0.000, 10:30:35.674
40, 35.34, -15.17, 0.00, 0.00, 0.000, 0.000, 0.000, 10:30:35.674
41, 27.45, -25.59, 0.00, 0.00, 0.000, 0.000, 0.000, 10:30:35.675
42, 16.67, -25.34, 0.00, 0.00, 0.000, 0.000, 0.000, 10:30:35.675
43, 28.27, -15.28, 0.00, 0.00, 0.000, 0.000, 0.000, 10:30:35.690
44, 36.65, -12.58, 0.00, 0.00, 0.000, 0.000, 0.000, 10:30:35.690
45, 24.21, -23.78, 0.00, 0.00, 0.000, 0.000, 0.000, 10:30:35.705
46, 17.93, -26.70, 0.00, 0.00, 0.000, 0.000, 0.000, 10:30:35.705
47, 31.04, -13.25, 0.00, 0.00, 0.000, 0.000, 0.000, 10:30:35.705
48, 37.58, -18.94, 0.00, 0.00, 0.000, 0.000, 0.000, 10:30:35.705
49, 27.44, -24.90, 0.00, 0.00, 0.000, 0.000, 0.000, 10:30:35.719
50, 18.52, -21.06, 0.00, 0.00, 0.000, 0.000, 0.000, 10:30:35.719
51, 31.86, -17.90, 0.00, 0.00, 0.000, 0.000, 0.000, 10:30:35.734
52, 38.37, -16.56, 0.00, 0.00, 0.000, 0.000, 0.000, 10:30:35.734
53, 33.89, -20.72, 0.00, 0.00, 0.000, 0.000, 0.000, 10:30:35.735
54, 22.04, -21.34, 0.00, 0.00, 0.000, 0.000, 0.000, 10:30:35.735
55, 35.59, -17.17, 0.00, 0.00, 0.000, 0.000, 0.000, 10:30:35.757
56, 41.23, -16.29, 0.00, 0.00, 0.000, 0.000, 0.000, 10:30:35.757
57, 29.74, -24.15, 0.00, 0.00, 0.000, 0.000, 0.000, 10:30:35.765
58, 22.83, -22.66, 0.00, 0.00, 0.000, 0.000, 0.000, 10:30:35.765
59, 34.23, -16.42, 0.00, 0.00, 0.000, 0.000, 0.000, 10:30:35.765
60, 37.18, -21.73, 0.00, 0.00, 0.000, 0.000, 0.000, 10:30:35.765
61, 29.56, -24.52, 0.00, 0.00, 0.000, 0.000, 0.000, 10:30:35.780
62, 25.14, -23.54, 0.00, 0.00, 0.000, 0.000, 0.000, 10:30:35.780
63, 36.50, -18.52, 0.00, 0.00, 0.000, 0.000, 0.000, 10:30:35.794
64, 43.81, -20.01, 0.00, 0.00, 0.000, 0.000, 0.000, 10:30:35.794
65, 32.63, -20.25, 0.00, 0.00, 0.000, 0.000, 0.000, 10:30:35.796
66, 26.79, -24.33, 0.00, 0.00, 0.000, 0.000, 0.000, 10:30:35.796
67, 33.90, -12.20, 0.00, 0.00, 0.000, 0.000, 0.000, 10:30:35.810
68, 42.27, -15.50, 0.00, 0.00, 0.000, 0.000, 0.000, 10:30:35.810
69, 32.92, -24.58, 0.00, 0.00, 0.000, 0.000, 0.000, 10:30:35.825
70, 27.49, -21.41, 0.00, 0.00, 0.000, 0.000, 0.000, 10:30:35.825
71, 37.21, -14.42, 0.00, 0.00, 0.000, 0.000, 0.000, 10:30:35.825
72, 43.72, -17.46, 0.00, 0.00, 0.000, 0.000, 0.000, 10:30:35.826
73, 31.36, -21.42, 0.00, 0.00, 0.000, 0.000, 0.000, 10:30:35.840
74, 24.03, -21.10, 0.00, 0.00, 0.000, 0.000, 0.000, 10:30:35.840
75, 36.54, -14.43, 0.00, 0.00, 0.000, 0.000, 0.000, 10:30:35.855
76, 41.73, -18.15, 0.00, 0.00, 0.000, 0.000, 0.000, 10:30:35.855
77, 33.57, -21.45, 0.00, 0.00, 0.000, 0.000, 0.000, 10:30:35.855
78, 22.33, -23.19, 0.00, 0.00, 0.000, 0.000, 0.000, 10:30:35.855
79, 31.23, -19.82, 0.00, 0.00, 0.000, 0.000, 0.000, 10:30:35.869
80, 39.71, -12.75, 0.00, 0.00, 0.000, 0.000, 0.000, 10:30:35.869
81, 31.61, -22.68, 0.00, 0.00, 0.000, 0.000, 0.000, 10:30:35.885
82, 22.75, -23.39, 0.00, 0.00, 0.000, 0.000, 0.000, 10:30:35.885
83, 35.38, -14.64, 0.00, 0.00, 0.000, 0.000, 0.000, 10:30:35.886
84, 40.22, -16.86, 0.00, 0.00, 0.000, 0.000, 0.000, 10:30:35.886
85, 29.58, -21.90, 0.00, 0.00, 0.000, 0.000, 0.000, 10:30:35.899
86, 20.74, -20.68, 0.00, 0.00, 0.000, 0.000, 0.000, 10:30:35.899
87, 35.08, -17.42, 0.00, 0.00, 0.000, 0.000, 0.000, 10:30:35.915
88, 42.05, -18.80, 0.00, 0.00, 0.000, 0.000, 0.000, 10:30:35.915
89, 30.02, -20.54, 0.00, 0.00, 0.000, 0.000, 0.000, 10:30:35.915
90, 27.08, -20.04, 0.00, 0.00, 0.000, 0.000, 0.000, 10:30:35.916
91, 34.25, -18.12, 0.00, 0.00, 0.000, 0.000, 0.000, 10:30:35.930
92, 38.14, -13.92, 0.00, 0.00, 0.000, 0.000, 0.000, 10:30:35.930
93, 29.52, -22.61, 0.00, 0.00, 0.000, 0.000, 0.000, 10:30:35.944
94, 19.83, -22.14, 0.00, 0.00, 0.000, 0.000, 0.000, 10:30:35.944
95, 33.01, -11.23, 0.00, 0.00, 0.000, 0.000, 0.000, 10:30:35.945
96, 40.05, -16.62, 0.00, 0.00, 0.000, 0.000, 0.000, 10:30:35.945
97, 27.98, -23.65, 0.00, 0.00, 0.000, 0.000, 0.000, 10:30:35.959
98, 25.21, -23.17, 0.00, 0.00, 0.000, 0.000, 0.000, 10:30:35.959
99, 32.57, -14.74, 0.00, 0.00, 0.000, 0.000, 0.000, 10:30:35.974
100, 40.16, -14.95, 0.00, 0.00, 0.000, 0.000, 0.000, 10:30:35.974
101, 29.47, -22.07, 0.00, 0.00, 0.000, 0.000, 0.000, 10:30:35.974
102, 22.64, -24.18, 0.00, 0.00, 0.000, 0.000, 0.000, 10:30:35.974
103, 33.01, -13.37, 0.00, 0.00, 0.000, 0.000, 0.000, 10:30:35.989
104, 39.77, -5.44, 0.00, 0.00, 0.000, 0.000, 0.000, 10:30:35.989
105, 30.57, -19.64, 0.00, 0.00, 0.000, 0.000, 0.000, 10:30:36.005
106, 19.23, -21.98, 0.00, 0.00, 0.000, 0.000, 0.000, 10:30:36.005
107, 34.85, -10.18, 0.00, 0.00, 0.000, 0.000, 0.000, 10:30:36.005
108, 38.21, -12.81, 0.00, 0.00, 0.000, 0.000, 0.000, 10:30:36.005
109, 32.20, -21.98, 0.00, 0.00, 0.000, 0.000, 0.000, 10:30:36.020
110, 19.77, -17.35, 0.00, 0.00, 0.000, 0.000, 0.000, 10:30:36.020
111, 30.98, -13.04, 0.00, 0.00, 0.000, 0.000, 0.000, 10:30:36.035
112, 39.14, -15.12, 0.00, 0.00, 0.000, 0.000, 0.000, 10:30:36.035
113, 29.56, -21.98, 0.00, 0.00, 0.000, 0.000, 0.000, 10:30:36.035
114, 22.01, -22.33, 0.00, 0.00, 0.000, 0.000, 0.000, 10:30:36.035
115, 31.36, -9.92, 0.00, 0.00, 0.000, 0.000, 0.000, 10:30:36.050
116, 40.39, -9.33, 0.00, 0.00, 0.000, 0.000, 0.000, 10:30:36.050
117, 28.49, -23.04, 0.00, 0.00, 0.000, 0.000, 0.000, 10:30:36.065
118, 20.17, -24.27, 0.00, 0.00, 0.000, 0.000, 0.000, 10:30:36.065
119, 30.14, -10.04, 0.00, 0.00, 0.000, 0.000, 0.000, 10:30:36.080
120, 41.94, -14.51, 0.00, 0.00, 0.000, 0.000, 0.000, 10:30:36.080
121, 29.82, -21.64, 0.00, 0.00, 0.000, 0.000, 0.000, 10:30:36.080
122, 18.48, -20.21, 0.00, 0.00, 0.000, 0.000, 0.000, 10:30:36.080
123, 28.56, -12.56, 0.00, 0.00, 0.000, 0.000, 0.000, 10:30:36.095
124, 37.33, -15.22, 0.00, 0.00, 0.000, 0.000, 0.000, 10:30:36.095
125, 29.23, -17.65, 0.00, 0.00, 0.000, 0.000, 0.000, 10:30:36.095
126, 19.86, -21.88, 0.00, 0.00, 0.000, 0.000, 0.000, 10:30:36.095
127, 31.33, -11.34, 0.00, 0.00, 0.000, 0.000, 0.000, 10:30:36.109
128, 38.14, -4.06, 0.00, 0.00, 0.000, 0.000, 0.000, 10:30:36.109
129, 24.65, -23.29, 0.00, 0.00, 0.000, 0.000, 0.000, 10:30:36.125
130, 14.61, -25.18, 0.00, 0.00, 0.000, 0.000, 0.000, 10:30:36.125
131, 28.96, -9.96, 0.00, 0.00, 0.000, 0.000, 0.000, 10:30:36.132
132, 34.48, -16.01, 0.00, 0.00, 0.000, 0.000, 0.000, 10:30:36.132
133, 28.93, -25.23, 0.00, 0.00, 0.000, 0.000, 0.000, 10:30:36.140
134, 21.35, -21.81, 0.00, 0.00, 0.000, 0.000, 0.000, 10:30:36.140
135, 32.27, -15.60, 0.00, 0.00, 0.000, 0.000, 0.000, 10:30:36.155
136, 39.51, -15.56, 0.00, 0.00, 0.000, 0.000, 0.000, 10:30:36.155
137, 29.01, -17.86, 0.00, 0.00, 0.000, 0.000, 0.000, 10:30:36.155
138, 21.38, -19.55, 0.00, 0.00, 0.000, 0.000, 0.000, 10:30:36.155
139, 33.26, -9.44, 0.00, 0.00, 0.000, 0.000, 0.000, 10:30:36.170
140, 34.91, -1.69, 0.00, 0.00, 0.000, 0.000, 0.000, 10:30:36.170
141, 28.42, -20.84, 0.00, 0.00, 0.000, 0.000, 0.000, 10:30:36.185
142, 20.70, -25.49, 0.00, 0.00, 0.000, 0.000, 0.000, 10:30:36.185
143, 32.05, -9.89, 0.00, 0.00, 0.000, 0.000, 0.000, 10:30:36.185
144, 40.10, -15.97, 0.00, 0.00, 0.000, 0.000, 0.000, 10:30:36.185
145, 30.62, -19.77, 0.00, 0.00, 0.000, 0.000, 0.000, 10:30:36.200
146, 23.31, -22.08, 0.00, 0.00, 0.000, 0.000, 0.000, 10:30:36.200
147, 34.08, -11.52, 0.00, 0.00, 0.000, 0.000, 0.000, 10:30:36.215
148, 41.72, -18.14, 0.00, 0.00, 0.000, 0.000, 0.000, 10:30:36.215
149, 31.87, -21.17, 0.00, 0.00, 0.000, 0.000, 0.000, 10:30:36.215
150, 24.73, -21.12, 0.00, 0.00, 0.000, 0.000, 0.000, 10:30:36.215
151, 33.72, -14.06, 0.00, 0.00, 0.000, 0.000, 0.000, 10:30:36.230
152, 40.04, -12.29, 0.00, 0.00, 0.000, 0.000, 0.000, 10:30:36.230
153, 30.96, -19.15, 0.00, 0.00, 0.000, 0.000, 0.000, 10:30:36.245
154, 21.57, -19.53, 0.00, 0.00, 0.000, 0.000, 0.000, 10:30:36.245
155, 36.13, -9.48, 0.00, 0.00, 0.000, 0.000, 0.000, 10:30:36.245
156, 40.13, -15.32, 0.00, 0.00, 0.000, 0.000, 0.000, 10:30:36.245
157, 29.58, -22.13, 0.00, 0.00, 0.000, 0.000, 0.000, 10:30:36.259
158, 21.87, -20.52, 0.00, 0.00, 0.000, 0.000, 0.000, 10:30:36.260
159, 35.27, -13.05, 0.00, 0.00, 0.000, 0.000, 0.000, 10:30:36.274
160, 41.45, -14.99, 0.00, 0.00, 0.000, 0.000, 0.000, 10:30:36.274
161, 30.51, -21.44, 0.00, 0.00, 0.000, 0.000, 0.000, 10:30:36.275
162, 21.40, -24.90, 0.00, 0.00, 0.000, 0.000, 0.000, 10:30:36.275
163, 31.58, -11.49, 0.00, 0.00, 0.000, 0.000, 0.000, 10:30:36.290
164, 42.59, -9.94, 0.00, 0.00, 0.000, 0.000, 0.000, 10:30:36.290
165, 27.89, -21.20, 0.00, 0.00, 0.000, 0.000, 0.000, 10:30:36.305
166, 20.86, -19.03, 0.00, 0.00, 0.000, 0.000, 0.000, 10:30:36.305
167, 33.73, -9.08, 0.00, 0.00, 0.000, 0.000, 0.000, 10:30:36.305
168, 36.61, -16.49, 0.00, 0.00, 0.000, 0.000, 0.000, 10:30:36.306
169, 29.92, -19.38, 0.00, 0.00, 0.000, 0.000, 0.000, 10:30:36.320
170, 21.12, -19.25, 0.00, 0.00, 0.000, 0.000, 0.000, 10:30:36.320
171, 33.43, -13.31, 0.00, 0.00, 0.000, 0.000, 0.000, 10:30:36.335
172, 42.00, -14.33, 0.00, 0.00, 0.000, 0.000, 0.000, 10:30:36.335
173, 30.85, -17.07, 0.00, 0.00, 0.000, 0.000, 0.000, 10:30:36.335
174, 21.67, -21.34, 0.00, 0.00, 0.000, 0.000, 0.000, 10:30:36.335
175, 33.59, -12.20, 0.00, 0.00, 0.000, 0.000, 0.000, 10:30:36.350
176, 40.62, -8.59, 0.00, 0.00, 0.000, 0.000, 0.000, 10:30:36.350
177, 33.73, -23.81, 0.00, 0.00, 0.000, 0.000, 0.000, 10:30:36.365
178, 23.80, -23.45, 0.00, 0.00, 0.000, 0.000, 0.000, 10:30:36.365
179, 32.94, -8.43, 0.00, 0.00, 0.000, 0.000, 0.000, 10:30:36.365
180, 41.93, -10.03, 0.00, 0.00, 0.000, 0.000, 0.000, 10:30:36.366
181, 27.65, -22.59, 0.00, 0.00, 0.000, 0.000, 0.000, 10:30:36.380
182, 20.27, -20.23, 0.00, 0.00, 0.000, 0.000, 0.000, 10:30:36.380
183, 29.92, -6.50, 0.00, 0.00, 0.000, 0.000, 0.000, 10:30:36.395
184, 39.48, -9.99, 0.00, 0.00, 0.000, 0.000, 0.000, 10:30:36.395
185, 27.01, -22.50, 0.00, 0.00, 0.000, 0.000, 0.000, 10:30:36.395
186, 21.54, -21.91, 0.00, 0.00, 0.000, 0.000, 0.000, 10:30:36.395
187, 34.56, -5.36, 0.00, 0.00, 0.000, 0.000, 0.000, 10:30:36.410
188, 39.71, -8.82, 0.00, 0.00, 0.000, 0.000, 0.000, 10:30:36.410
189, 27.16, -19.68, 0.00, 0.00, 0.000, 0.000, 0.000, 10:30:36.424
190, 20.29, -22.56, 0.00, 0.00, 0.000, 0.000, 0.000, 10:30:36.424
191, 34.46, -11.14, 0.00, 0.00, 0.000, 0.000, 0.000, 10:30:36.425
192, 44.67, -16.22, 0.00, 0.00, 0.000, 0.000, 0.000, 10:30:36.425
193, 30.59, -22.82, 0.00, 0.00, 0.000, 0.000, 0.000, 10:30:36.439
194, 24.22, -17.70, 0.00, 0.00, 0.000, 0.000, 0.000, 10:30:36.439
195, 34.84, -13.03, 0.00, 0.00, 0.000, 0.000, 0.000, 10:30:36.454
196, 37.63, -13.07, 0.00, 0.00, 0.000, 0.000, 0.000, 10:30:36.454
197, 29.80, -21.95, 0.00, 0.00, 0.000, 0.000, 0.000, 10:30:36.455
198, 22.88, -21.67, 0.00, 0.00, 0.000, 0.000, 0.000, 10:30:36.455
199, 34.11, -10.21, 0.00, 0.00, 0.000, 0.000, 0.000, 10:30:36.470
200, 37.97, -8.05, 0.00, 0.00, 0.000, 0.000, 0.000, 10:30:36.470
0, 24.39, -20.09, 0.00, 0.00, 0.000, 0.000, 0.000, 10:30:36.470
1, 17.32, -22.98, 0.00, 0.00, 0.000, 0.000, 0.000, 10:30:36.486
2, 27.92, -6.78, 0.00, 0.00, 0.000, 0.000, 0.000, 10:30:36.486
3, 36.53, -12.60, 0.00, 0.00, 0.000, 0.000, 0.000, 10:30:36.499
4, 27.94, -23.59, 0.00, 0.00, 0.000, 0.000, 0.000, 10:30:36.500
5, 19.06, -21.57, 0.00, 0.00, 0.000, 0.000, 0.000, 10:30:36.500
6, 32.88, -12.87, 0.00, 0.00, 0.000, 0.000, 0.000, 10:30:36.500
7, 37.52, -17.90, 0.00, 0.00, 0.000, 0.000, 0.000, 10:30:36.521
8, 24.72, -21.01, 0.00, 0.00, 0.000, 0.000, 0.000, 10:30:36.522
9, 17.36, -23.08, 0.00, 0.00, 0.000, 0.000, 0.000, 10:30:36.529
10, 32.71, -13.08, 0.00, 0.00, 0.000, 0.000, 0.000, 10:30:36.530
11, 40.20, -13.47, 0.00, 0.00, 0.000, 0.000, 0.000, 10:30:36.530
12, 30.07, -20.64, 0.00, 0.00, 0.000, 0.000, 0.000, 10:30:36.530
13, 21.78, -21.21, 0.00, 0.00, 0.000, 0.000, 0.000, 10:30:36.545
14, 33.94, -13.50, 0.00, 0.00, 0.000, 0.000, 0.000, 10:30:36.545
15, 37.50, -18.65, 0.00, 0.00, 0.000, 0.000, 0.000, 10:30:36.560
16, 29.06, -19.80, 0.00, 0.00, 0.000, 0.000, 0.000, 10:30:36.560
17, 21.61, -20.38, 0.00, 0.00, 0.000, 0.000, 0.000, 10:30:36.560
18, 31.39, -11.20, 0.00, 0.00, 0.000, 0.000, 0.000, 10:30:36.560
19, 40.14, -18.05, 0.00, 0.00, 0.000, 0.000, 0.000, 10:30:36.574
20, 28.58, -20.81, 0.00, 0.00, 0.000, 0.000, 0.000, 10:30:36.575
21, 21.41, -24.71, 0.00, 0.00, 0.000, 0.000, 0.000, 10:30:36.589
22, 33.45, -12.93, 0.00, 0.00, 0.000, 0.000, 0.000, 10:30:36.590
23, 40.06, -14.49, 0.00, 0.00, 0.000, 0.000, 0.000, 10:30:36.604
24, 30.91, -23.75, 0.00, 0.00, 0.000, 0.000, 0.000, 10:30:36.604
25, 21.59, -21.90, 0.00, 0.00, 0.000, 0.000, 0.000, 10:30:36.605
26, 33.57, -9.01, 0.00, 0.00, 0.000, 0.000, 0.000, 10:30:36.605
27, 39.44, -17.89, 0.00, 0.00, 0.000, 0.000, 0.000, 10:30:36.620
28, 25.69, -22.96, 0.00, 0.00, 0.000, 0.000, 0.000, 10:30:36.620
29, 21.36, -19.95, 0.00, 0.00, 0.000, 0.000, 0.000, 10:30:36.620
30, 31.29, -15.76, 0.00, 0.00, 0.000, 0.000, 0.000, 10:30:36.620
31, 35.26, -13.61, 0.00, 0.00, 0.000, 0.000, 0.000, 10:30:36.635
32, 28.00, -19.68, 0.00, 0.00, 0.000, 0.000, 0.000, 10:30:36.636
33, 22.83, -25.47, 0.00, 0.00, 0.000, 0.000, 0.000, 10:30:36.650
34, 28.48, -13.42, 0.00, 0.00, 0.000, 0.000, 0.000, 10:30:36.650
35, 36.31, -13.59, 0.00, 0.00, 0.000, 0.000, 0.000, 10:30:36.650
36, 27.27, -22.31, 0.00, 0.00, 0.000, 0.000, 0.000, 10:30:36.650
37, 18.87, -25.67, 0.00, 0.00, 0.000, 0.000, 0.000, 10:30:36.664
38, 33.69, -9.09, 0.00, 0.00, 0.000, 0.000, 0.000, 10:30:36.664
39, 39.96, -12.50, 0.00, 0.00, 0.000, 0.000, 0.000, 10:30:36.679
40, 27.86, -22.31, 0.00, 0.00, 0.000, 0.000, 0.000, 10:30:36.679
41, 21.25, -22.80, 0.00, 0.00, 0.000, 0.000, 0.000, 10:30:36.680
42, 35.04, -12.05, 0.00, 0.00, 0.000, 0.000, 0.000, 10:30:36.680
43, 38.97, -14.38, 0.00, 0.00, 0.000, 0.000, 0.000, 10:30:36.695
44, 25.50, -20.88, 0.00, 0.00, 0.000, 0.000, 0.000, 10:30:36.695
45, 19.54, -24.60, 0.00, 0.00, 0.000, 0.000, 0.000, 10:30:36.709
46, 32.55, -14.48, 0.00, 0.00, 0.000, 0.000, 0.000, 10:30:36.709
47, 40.03, -14.26, 0.00, 0.00, 0.000, 0.000, 0.000, 10:30:36.710
48, 28.57, -27.12, 0.00, 0.00, 0.000, 0.000, 0.000, 10:30:36.710
49, 21.01, -22.57, 0.00, 0.00, 0.000, 0.000, 0.000, 10:30:36.725
50, 30.19, -8.47, 0.00, 0.00, 0.000, 0.000, 0.000, 10:30:36.726
51, 38.23, -14.16, 0.00, 0.00, 0.000, 0.000, 0.000, 10:30:36.740
52, 30.18, -23.06, 0.00, 0.00, 0.000, 0.000, 0.000, 10:30:36.740
53, 23.02, -19.64, 0.00, 0.00, 0.000, 0.000, 0.000, 10:30:36.740
54, 34.09, -10.08, 0.00, 0.00, 0.000, 0.000, 0.000, 10:30:36.740
55, 41.74, -15.71, 0.00, 0.00, 0.000, 0.000, 0.000, 10:30:36.755
56, 30.92, -25.51, 0.00, 0.00, 0.000, 0.000, 0.000, 10:30:36.755
57, 25.79, -24.68, 0.00, 0.00, 0.000, 0.000, 0.000, 10:30:36.770
58, 32.20, -11.81, 0.00, 0.00, 0.000, 0.000, 0.000, 10:30:36.770
59, 36.00, -16.04, 0.00, 0.00, 0.000, 0.000, 0.000, 10:30:36.770
60, 27.10, -25.95, 0.00, 0.00, 0.000, 0.000, 0.000, 10:30:36.770
61, 18.41, -26.35, 0.00, 0.00, 0.000, 0.000, 0.000, 10:30:36.785
62, 31.97, -10.24, 0.00, 0.00, 0.000, 0.000, 0.000, 10:30:36.785
63, 38.59, -16.21, 0.00, 0.00, 0.000, 0.000, 0.000, 10:30:36.800
64, 31.18, -24.70, 0.00, 0.00, 0.000, 0.000, 0.000, 10:30:36.800
65, 25.80, -21.27, 0.00, 0.00, 0.000, 0.000, 0.000, 10:30:36.800
66, 33.56, -17.70, 0.00, 0.00, 0.000, 0.000, 0.000, 10:30:36.800
67, 38.44, -14.35, 0.00, 0.00, 0.000, 0.000, 0.000, 10:30:36.815
68, 30.15, -17.68, 0.00, 0.00, 0.000, 0.000, 0.000, 10:30:36.815
69, 23.64, -22.02, 0.00, 0.00, 0.000, 0.000, 0.000, 10:30:36.829
70, 34.27, -12.79, 0.00, 0.00, 0.000, 0.000, 0.000, 10:30:36.829
71, 38.04, -13.22, 0.00, 0.00, 0.000, 0.000, 0.000, 10:30:36.837
72, 29.51, -22.60, 0.00, 0.00, 0.000, 0.000, 0.000, 10:30:36.837
73, 21.38, -20.14, 0.00, 0.00, 0.000, 0.000, 0.000, 10:30:36.845
74, 33.70, -11.57, 0.00, 0.00, 0.000, 0.000, 0.000, 10:30:36.845
75, 38.19, -18.27, 0.00, 0.00, 0.000, 0.000, 0.000, 10:30:36.860
76, 29.24, -22.31, 0.00, 0.00, 0.000, 0.000, 0.000, 10:30:36.860
77, 24.44, -23.31, 0.00, 0.00, 0.000, 0.000, 0.000, 10:30:36.860
78, 34.68, -13.43, 0.00, 0.00, 0.000, 0.000, 0.000, 10:30:36.861
79, 42.00, -16.78, 0.00, 0.00, 0.000, 0.000, 0.000, 10:30:36.874
80, 29.30, -22.45, 0.00, 0.00, 0.000, 0.000, 0.000, 10:30:36.874
81, 24.20, -22.16, 0.00, 0.00, 0.000, 0.000, 0.000, 10:30:36.890
82, 36.05, -17.02, 0.00, 0.00, 0.000, 0.000, 0.000, 10:30:36.890
83, 42.95, -16.22, 0.00, 0.00, 0.000, 0.000, 0.000, 10:30:36.890
84, 27.09, -24.05, 0.00, 0.00, 0.000, 0.000, 0.000, 10:30:36.890
85, 23.69, -22.36, 0.00, 0.00, 0.000, 0.000, 0.000, 10:30:36.905
86, 35.54, -9.03, 0.00, 0.00, 0.000, 0.000, 0.000, 10:30:36.905
87, 38.18, -18.87, 0.00, 0.00, 0.000, 0.000, 0.000, 10:30:36.920
88, 29.35, -26.32, 0.00, 0.00, 0.000, 0.000, 0.000, 10:30:36.920
89, 22.89, -21.93, 0.00, 0.00, 0.000, 0.000, 0.000, 10:30:36.920
90, 36.34, -15.60, 0.00, 0.00, 0.000, 0.000, 0.000, 10:30:36.920
91, 39.79, -18.14, 0.00, 0.00, 0.000, 0.000, 0.000, 10:30:36.939
92, 31.01, -19.68, 0.00, 0.00, 0.000, 0.000, 0.000, 10:30:36.939
93, 18.79, -20.70, 0.00, 0.00, 0.000, 0.000, 0.000, 10:30:36.950
94, 33.05, -17.57, 0.00, 0.00, 0.000, 0.000, 0.000, 10:30:36.950
95, 33.35, -18.17, 0.00, 0.00, 0.000, 0.000, 0.000, 10:30:36.951
96, 28.30, -25.30, 0.00, 0.00, 0.000, 0.000, 0.000, 10:30:36.951
97, 22.67, -20.10, 0.00, 0.00, 0.000, 0.000, 0.000, 10:30:36.965
98, 31.32, -10.85, 0.00, 0.00, 0.000, 0.000, 0.000, 10:30:36.965
99, 37.45, -17.61, 0.00, 0.00, 0.000, 0.000, 0.000, 10:30:36.979
100, 26.06, -23.18, 0.00, 0.00, 0.000, 0.000, 0.000, 10:30:36.980
101, 20.95, -20.73, 0.00, 0.00, 0.000, 0.000, 0.000, 10:30:36.981
102, 33.25, -19.31, 0.00, 0.00, 0.000, 0.000, 0.000, 10:30:36.981
103, 41.71, -16.75, 0.00, 0.00, 0.000, 0.000, 0.000, 10:30:36.994
104, 32.10, -19.20, 0.00, 0.00, 0.000, 0.000, 0.000, 10:30:36.994
105, 26.30, -23.42, 0.00, 0.00, 0.000, 0.000, 0.000, 10:30:37.009
106, 33.03, -15.48, 0.00, 0.00, 0.000, 0.000, 0.000, 10:30:37.009
107, 39.04, -14.74, 0.00, 0.00, 0.000, 0.000, 0.000, 10:30:37.012
108, 25.67, -20.67, 0.00, 0.00, 0.000, 0.000, 0.000, 10:30:37.012
109, 20.83, -22.88, 0.00, 0.00, 0.000, 0.000, 0.000, 10:30:37.025
110, 32.06, -14.42, 0.00, 0.00, 0.000, 0.000, 0.000, 10:30:37.025
111, 38.88, -21.03, 0.00, 0.00, 0.000, 0.000, 0.000, 10:30:37.041
112, 26.87, -20.72, 0.00, 0.00, 0.000, 0.000, 0.000, 10:30:37.041
113, 22.33, -21.99, 0.00, 0.00, 0.000, 0.000, 0.000, 10:30:37.042
114, 36.23, -17.88, 0.00, 0.00, 0.000, 0.000, 0.000, 10:30:37.042
115, 40.87, -22.05, 0.00, 0.00, 0.000, 0.000, 0.000, 10:30:37.056
116, 30.54, -25.20, 0.00, 0.00, 0.000, 0.000, 0.000, 10:30:37.056
117, 22.26, -24.61, 0.00, 0.00, 0.000, 0.000, 0.000, 10:30:37.070
118, 34.94, -21.05, 0.00, 0.00, 0.000, 0.000, 0.000, 10:30:37.070
119, 39.97, -17.83, 0.00, 0.00, 0.000, 0.000, 0.000, 10:30:37.071
120, 26.63, -25.30, 0.00, 0.00, 0.000, 0.000, 0.000, 10:30:37.071
121, 24.19, -21.68, 0.00, 0.00, 0.000, 0.000, 0.000, 10:30:37.086
122, 32.92, -14.40, 0.00, 0.00, 0.000, 0.000, 0.000, 10:30:37.087
123, 38.49, -20.41, 0.00, 0.00, 0.000, 0.000, 0.000, 10:30:37.100
124, 28.40, -22.59, 0.00, 0.00, 0.000, 0.000, 0.000, 10:30:37.100
125, 22.09, -21.38, 0.00, 0.00, 0.000, 0.000, 0.000, 10:30:37.101
126, 32.96, -18.67, 0.00, 0.00, 0.000, 0.000, 0.000, 10:30:37.101
127, 42.15, -20.29, 0.00, 0.00, 0.000, 0.000, 0.000, 10:30:37.114
128, 28.30, -25.51, 0.00, 0.00, 0.000, 0.000, 0.000, 10:30:37.114
129, 19.12, -29.49, 0.00, 0.00, 0.000, 0.000, 0.000, 10:30:37.130
130, 37.38, -23.39, 0.00, 0.00, 0.000, 0.000, 0.000, 10:30:37.130
131, 41.19, -19.98, 0.00, 0.00, 0.000, 0.000, 0.000, 10:30:37.130
132, 30.52, -24.14, 0.00, 0.00, 0.000, 0.000, 0.000, 10:30:37.130
133, 21.86, -25.36, 0.00, 0.00, 0.000, 0.000, 0.000, 10:30:37.145
134, 38.14, -15.39, 0.00, 0.00, 0.000, 0.000, 0.000, 10:30:37.145
135, 38.23, -21.06, 0.00, 0.00, 0.000, 0.000, 0.000, 10:30:37.160
136, 30.54, -27.98, 0.00, 0.00, 0.000, 0.000, 0.000, 10:30:37.160
137, 22.78, -27.50, 0.00, 0.00, 0.000, 0.000, 0.000, 10:30:37.160
138, 35.58, -19.96, 0.00, 0.00, 0.000, 0.000, 0.000, 10:30:37.160
139, 41.35, -26.28, 0.00, 0.00, 0.000, 0.000, 0.000, 10:30:37.175
140, 28.32, -28.36, 0.00, 0.00, 0.000, 0.000, 0.000, 10:30:37.175
141, 27.68, -27.35, 0.00, 0.00, 0.000, 0.000, 0.000, 10:30:37.190
142, 38.81, -23.81, 0.00, 0.00, 0.000, 0.000, 0.000, 10:30:37.190
143, 41.05, -23.06, 0.00, 0.00, 0.000, 0.000, 0.000, 10:30:37.190
144, 32.85, -31.16, 0.00, 0.00, 0.000, 0.000, 0.000, 10:30:37.190
145, 25.91, -26.90, 0.00, 0.00, 0.000, 0.000, 0.000, 10:30:37.204
146, 37.10, -20.15, 0.00, 0.00, 0.000, 0.000, 0.000, 10:30:37.204
147, 43.05, -22.31, 0.00, 0.00, 0.000, 0.000, 0.000, 10:30:37.220
148, 32.66, -27.62, 0.00, 0.00, 0.000, 0.000, 0.000, 10:30:37.221
149, 25.70, -24.24, 0.00, 0.00, 0.000, 0.000, 0.000, 10:30:37.221
150, 38.50, -25.09, 0.00, 0.00, 0.000, 0.000, 0.000, 10:30:37.221
151, 46.86, -20.32, 0.00, 0.00, 0.000, 0.000, 0.000, 10:30:37.235
152, 31.81, -29.20, 0.00, 0.00, 0.000, 0.000, 0.000, 10:30:37.235
153, 29.96, -23.14, 0.00, 0.00, 0.000, 0.000, 0.000, 10:30:37.249
154, 40.31, -21.55, 0.00, 0.00, 0.000, 0.000, 0.000, 10:30:37.250
155, 42.52, -20.42, 0.00, 0.00, 0.000, 0.000, 0.000, 10:30:37.250
156, 31.51, -29.22, 0.00, 0.00, 0.000, 0.000, 0.000, 10:30:37.250
157, 29.49, -28.76, 0.00, 0.00, 0.000, 0.000, 0.000, 10:30:37.265
158, 36.95, -21.00, 0.00, 0.00, 0.000, 0.000, 0.000, 10:30:37.265
159, 44.29, -23.04, 0.00, 0.00, 0.000, 0.000, 0.000, 10:30:37.280
160, 31.84, -28.57, 0.00, 0.00, 0.000, 0.000, 0.000, 10:30:37.280
161, 29.74, -27.12, 0.00, 0.00, 0.000, 0.000, 0.000, 10:30:37.280
162, 43.31, -23.19, 0.00, 0.00, 0.000, 0.000, 0.000, 10:30:37.280
163, 44.42, -21.81, 0.00, 0.00, 0.000, 0.000, 0.000, 10:30:37.295
164, 32.12, -26.06, 0.00, 0.00, 0.000, 0.000, 0.000, 10:30:37.295
165, 27.49, -26.89, 0.00, 0.00, 0.000, 0.000, 0.000, 10:30:37.310
166, 39.55, -22.41, 0.00, 0.00, 0.000, 0.000, 0.000, 10:30:37.310
167, 45.39, -20.34, 0.00, 0.00, 0.000, 0.000, 0.000, 10:30:37.310
168, 32.53, -29.44, 0.00, 0.00, 0.000, 0.000, 0.000, 10:30:37.310
169, 26.20, -24.32, 0.00, 0.00, 0.000, 0.000, 0.000, 10:30:37.325
170, 39.61, -16.99, 0.00, 0.00, 0.000, 0.000, 0.000, 10:30:37.325
171, 40.62, -21.27, 0.00, 0.00, 0.000, 0.000, 0.000, 10:30:37.339
172, 27.53, -27.06, 0.00, 0.00, 0.000, 0.000, 0.000, 10:30:37.339
173, 26.76, -27.42, 0.00, 0.00, 0.000, 0.000, 0.000, 10:30:37.340
174, 36.35, -22.21, 0.00, 0.00, 0.000, 0.000, 0.000, 10:30:37.340
175, 44.86, -24.13, 0.00, 0.00, 0.000, 0.000, 0.000, 10:30:37.354
176, 31.15, -23.54, 0.00, 0.00, 0.000, 0.000, 0.000, 10:30:37.354
177, 27.26, -26.79, 0.00, 0.00, 0.000, 0.000, 0.000, 10:30:37.370
178, 39.07, -21.36, 0.00, 0.00, 0.000, 0.000, 0.000, 10:30:37.370
179, 41.09, -18.73, 0.00, 0.00, 0.000, 0.000, 0.000, 10:30:37.370
180, 32.29, -31.45, 0.00, 0.00, 0.000, 0.000, 0.000, 10:30:37.370
181, 29.73, -25.18, 0.00, 0.00, 0.000, 0.000, 0.000, 10:30:37.384
182, 36.81, -16.43, 0.00, 0.00, 0.000, 0.000, 0.000, 10:30:37.384
183, 46.38, -22.90, 0.00, 0.00, 0.000, 0.000, 0.000, 10:30:37.399
184, 30.30, -27.32, 0.00, 0.00, 0.000, 0.000, 0.000, 10:30:37.399
185, 24.87, -28.95, 0.00, 0.00, 0.000, 0.000, 0.000, 10:30:37.400
186, 39.30, -23.03, 0.00, 0.00, 0.000, 0.000, 0.000, 10:30:37.400
187, 44.73, -20.44, 0.00, 0.00, 0.000, 0.000, 0.000, 10:30:37.415
188, 34.18, -26.58, 0.00, 0.00, 0.000, 0.000, 0.000, 10:30:37.416
189, 28.50, -25.23, 0.00, 0.00, 0.000, 0.000, 0.000, 10:30:37.429
190, 38.31, -21.33, 0.00, 0.00, 0.000, 0.000, 0.000, 10:30:37.429
191, 44.78, -21.13, 0.00, 0.00, 0.000, 0.000, 0.000, 10:30:37.430
192, 31.93, -29.06, 0.00, 0.00, 0.000, 0.000, 0.000, 10:30:37.430
193, 29.00, -27.68, 0.00, 0.00, 0.000, 0.000, 0.000, 10:30:37.451
194, 39.79, -16.84, 0.00, 0.00, 0.000, 0.000, 0.000, 10:30:37.451
195, 45.43, -22.32, 0.00, 0.00, 0.000, 0.000, 0.000, 10:30:37.459
196, 34.94, -32.53, 0.00, 0.00, 0.000, 0.000, 0.000, 10:30:37.459
197, 32.28, -28.72, 0.00, 0.00, 0.000, 0.000, 0.000, 10:30:37.460
198, 42.20, -23.02, 0.00, 0.00, 0.000, 0.000, 0.000, 10:30:37.460
199, 48.79, -23.91, 0.00, 0.00, 0.000, 0.000, 0.000, 10:30:37.475
200, 34.17, -29.82, 0.00, 0.00, 0.000, 0.000, 0.000, 10:30:37.475
0, 31.00, -27.21, 0.00, 0.00, 0.000, 0.000, 0.000, 10:30:37.475
1, 40.45, -23.72, 0.00, 0.00, 0.000, 0.000, 0.000, 10:30:37.490
2, 47.97, -19.70, 0.00, 0.00, 0.000, 0.000, 0.000, 10:30:37.490
3, 32.81, -29.49, 0.00, 0.00, 0.000, 0.000, 0.000, 10:30:37.504
4, 29.05, -25.34, 0.00, 0.00, 0.000, 0.000, 0.000, 10:30:37.504
5, 39.82, -20.18, 0.00, 0.00, 0.000, 0.000, 0.000, 10:30:37.505
6, 41.92, -24.97, 0.00, 0.00, 0.000, 0.000, 0.000, 10:30:37.505
7, 32.68, -27.79, 0.00, 0.00, 0.000, 0.000, 0.000, 10:30:37.520
8, 26.58, -24.84, 0.00, 0.00, 0.000, 0.000, 0.000, 10:30:37.520
9, 39.75, -21.06, 0.00, 0.00, 0.000, 0.000, 0.000, 10:30:37.534
10, 44.26, -20.64, 0.00, 0.00, 0.000, 0.000, 0.000, 10:30:37.534
11, 33.94, -29.79, 0.00, 0.00, 0.000, 0.000, 0.000, 10:30:37.534
12, 31.24, -26.92, 0.00, 0.00, 0.000, 0.000, 0.000, 10:30:37.535
13, 36.85, -20.09, 0.00, 0.00, 0.000, 0.000, 0.000, 10:30:37.549
14, 41.20, -20.65, 0.00, 0.00, 0.000, 0.000, 0.000, 10:30:37.549
15, 32.32, -28.38, 0.00, 0.00, 0.000, 0.000, 0.000, 10:30:37.564
16, 29.37, -26.72, 0.00, 0.00, 0.000, 0.000, 0.000, 10:30:37.564
17, 40.64, -21.17, 0.00, 0.00, 0.000, 0.000, 0.000, 10:30:37.565
18, 44.35, -22.44, 0.00, 0.00, 0.000, 0.000, 0.000, 10:30:37.565
19, 31.98, -25.72, 0.00, 0.00, 0.000, 0.000, 0.000, 10:30:37.580
20, 28.02, -25.93, 0.00, 0.00, 0.000, 0.000, 0.000, 10:30:37.580
21, 40.78, -23.00, 0.00, 0.00, 0.000, 0.000, 0.000, 10:30:37.596
22, 42.17, -22.95, 0.00, 0.00, 0.000, 0.000, 0.000, 10:30:37.596
23, 27.46, -33.23, 0.00, 0.00, 0.000, 0.000, 0.000, 10:30:37.597
24, 26.52, -27.46, 0.00, 0.00, 0.000, 0.000, 0.000, 10:30:37.598
25, 36.74, -20.50, 0.00, 0.00, 0.000, 0.000, 0.000, 10:30:37.610
26, 42.66, -25.97, 0.00, 0.00, 0.000, 0.000, 0.000, 10:30:37.610
27, 31.00, -34.23, 0.00, 0.00, 0.000, 0.000, 0.000, 10:30:37.625
28, 24.11, -33.22, 0.00, 0.00, 0.000, 0.000, 0.000, 10:30:37.625
29, 39.08, -20.69, 0.00, 0.00, 0.000, 0.000, 0.000, 10:30:37.625
30, 42.55, -23.74, 0.00, 0.00, 0.000, 0.000, 0.000, 10:30:37.625
31, 29.68, -34.09, 0.00, 0.00, 0.000, 0.000, 0.000, 10:30:37.640
32, 26.02, -30.69, 0.00, 0.00, 0.000, 0.000, 0.000, 10:30:37.640
33, 36.41, -22.05, 0.00, 0.00, 0.000, 0.000, 0.000, 10:30:37.655
34, 44.62, -23.98, 0.00, 0.00, 0.000, 0.000, 0.000, 10:30:37.655
35, 30.87, -31.05, 0.00, 0.00, 0.000, 0.000, 0.000, 10:30:37.655
36, 28.27, -30.34, 0.00, 0.00, 0.000, 0.000, 0.000, 10:30:37.655
37, 41.74, -22.04, 0.00, 0.00, 0.000, 0.000, 0.000, 10:30:37.670
38, 45.87, -22.83, 0.00, 0.00, 0.000, 0.000, 0.000, 10:30:37.670
39, 33.44, -31.49, 0.00, 0.00, 0.000, 0.000, 0.000, 10:30:37.686
40, 28.78, -29.22, 0.00, 0.00, 0.000, 0.000, 0.000, 10:30:37.686
41, 39.67, -18.82, 0.00, 0.00, 0.000, 0.000, 0.000, 10:30:37.686
42, 44.02, -21.39, 0.00, 0.00, 0.000, 0.000, 0.000, 10:30:37.686
43, 30.78, -33.07, 0.00, 0.00, 0.000, 0.000, 0.000, 10:30:37.701
44, 30.03, -27.37, 0.00, 0.00, 0.000, 0.000, 0.000, 10:30:37.701
45, 40.57, -26.26, 0.00, 0.00, 0.000, 0.000, 0.000, 10:30:37.714
46, 44.21, -21.66, 0.00, 0.00, 0.000, 0.000, 0.000, 10:30:37.714
47, 32.85, -30.20, 0.00, 0.00, 0.000, 0.000, 0.000, 10:30:37.715
48, 26.71, -29.68, 0.00, 0.00, 0.000, 0.000, 0.000, 10:30:37.715
49, 39.75, -20.85, 0.00, 0.00, 0.000, 0.000, 0.000, 10:30:37.730
50, 41.37, -23.19, 0.00, 0.00, 0.000, 0.000, 0.000, 10:30:37.730
51, 27.78, -31.95, 0.00, 0.00, 0.000, 0.000, 0.000, 10:30:37.745
52, 25.34, -31.56, 0.00, 0.00, 0.000, 0.000, 0.000, 10:30:37.745
53, 35.98, -20.52, 0.00, 0.00, 0.000, 0.000, 0.000, 10:30:37.745
54, 41.23, -25.61, 0.00, 0.00, 0.000, 0.000, 0.000, 10:30:37.746
55, 32.50, -35.08, 0.00, 0.00, 0.000, 0.000, 0.000, 10:30:37.762
56, 26.69, -30.09, 0.00, 0.00, 0.000, 0.000, 0.000, 10:30:37.762
57, 38.75, -22.48, 0.00, 0.00, 0.000, 0.000, 0.000, 10:30:37.775
58, 41.21, -27.28, 0.00, 0.00, 0.000, 0.000, 0.000, 10:30:37.775
59, 29.34, -35.68, 0.00, 0.00, 0.000, 0.000, 0.000, 10:30:37.775
60, 26.50, -29.76, 0.00, 0.00, 0.000, 0.000, 0.000, 10:30:37.775
61, 36.80, -20.82, 0.00, 0.00, 0.000, 0.000, 0.000, 10:30:37.790
62, 42.58, -22.90, 0.00, 0.00, 0.000, 0.000, 0.000, 10:30:37.790
63, 29.43, -34.35, 0.00, 0.00, 0.000, 0.000, 0.000, 10:30:37.804
64, 26.06, -29.80, 0.00, 0.00, 0.000, 0.000, 0.000, 10:30:37.804
65, 37.15, -23.49, 0.00, 0.00, 0.000, 0.000, 0.000, 10:30:37.806
66, 41.78, -24.86, 0.00, 0.00, 0.000, 0.000, 0.000, 10:30:37.806
67, 30.62, -31.76, 0.00, 0.00, 0.000, 0.000, 0.000, 10:30:37.821
68, 24.79, -31.26, 0.00, 0.00, 0.000, 0.000, 0.000, 10:30:37.821
69, 35.72, -21.11, 0.00, 0.00, 0.000, 0.000, 0.000, 10:30:37.834
70, 40.47, -23.74, 0.00, 0.00, 0.000, 0.000, 0.000, 10:30:37.834
71, 31.27, -36.00, 0.00, 0.00, 0.000, 0.000, 0.000, 10:30:37.842
72, 23.18, -32.20, 0.00, 0.00, 0.000, 0.000, 0.000, 10:30:37.842
73, 37.33, -22.63, 0.00, 0.00, 0.000, 0.000, 0.000, 10:30:37.851
74, 41.18, -27.90, 0.00, 0.00, 0.000, 0.000, 0.000, 10:30:37.851
75, 30.05, -30.91, 0.00, 0.00, 0.000, 0.000, 0.000, 10:30:37.865
76, 25.42, -32.83, 0.00, 0.00, 0.000, 0.000, 0.000, 10:30:37.865
77, 37.76, -18.22, 0.00, 0.00, 0.000, 0.000, 0.000, 10:30:37.865
78, 43.54, -25.87, 0.00, 0.00, 0.000, 0.000, 0.000, 10:30:37.865
79, 32.62, -39.47, 0.00, 0.00, 0.000, 0.000, 0.000, 10:30:37.880
80, 31.26, -28.97, 0.00, 0.00, 0.000, 0.000, 0.000, 10:30:37.880
81, 40.10, -23.85, 0.00, 0.00, 0.000, 0.000, 0.000, 10:30:37.895
82, 44.36, -24.49, 0.00, 0.00, 0.000, 0.000, 0.000, 10:30:37.895
83, 29.74, -37.77, 0.00, 0.00, 0.000, 0.000, 0.000, 10:30:37.895
84, 27.41, -30.32, 0.00, 0.00, 0.000, 0.000, 0.000, 10:30:37.895
85, 39.97, -23.69, 0.00, 0.00, 0.000, 0.000, 0.000, 10:30:37.910
86, 48.10, -23.87, 0.00, 0.00, 0.000, 0.000, 0.000, 10:30:37.911
87, 33.78, -35.32, 0.00, 0.00, 0.000, 0.000, 0.000, 10:30:37.925
88, 25.66, -29.88, 0.00, 0.00, 0.000, 0.000, 0.000, 10:30:37.925
89, 37.67, -18.27, 0.00, 0.00, 0.000, 0.000, 0.000, 10:30:37.925
90, 44.16, -22.78, 0.00, 0.00, 0.000, 0.000, 0.000, 10:30:37.925
91, 31.43, -30.44, 0.00, 0.00, 0.000, 0.000, 0.000, 10:30:37.940
92, 28.52, -26.18, 0.00, 0.00, 0.000, 0.000, 0.000, 10:30:37.940
93, 38.23, -23.78, 0.00, 0.00, 0.000, 0.000, 0.000, 10:30:37.955
94, 43.14, -25.16, 0.00, 0.00, 0.000, 0.000, 0.000, 10:30:37.955
95, 29.29, -29.83, 0.00, 0.00, 0.000, 0.000, 0.000, 10:30:37.970
96, 28.43, -24.62, 0.00, 0.00, 0.000, 0.000, 0.000, 10:30:37.970
97, 39.13, -17.62, 0.00, 0.00, 0.000, 0.000, 0.000, 10:30:37.970
98, 40.12, -20.36, 0.00, 0.00, 0.000, 0.000, 0.000, 10:30:37.970
99, 31.49, -32.08, 0.00, 0.00, 0.000, 0.000, 0.000, 10:30:37.985
100, 26.37, -27.16, 0.00, 0.00, 0.000, 0.000, 0.000, 10:30:37.985
101, 37.12, -21.50, 0.00, 0.00, 0.000, 0.000, 0.000, 10:30:37.986
102, 41.12, -27.14, 0.00, 0.00, 0.000, 0.000, 0.000, 10:30:37.986
103, 28.60, -27.29, 0.00, 0.00, 0.000, 0.000, 0.000, 10:30:38.000
104, 25.69, -26.20, 0.00, 0.00, 0.000, 0.000, 0.000, 10:30:38.000
105, 36.61, -21.18, 0.00, 0.00, 0.000, 0.000, 0.000, 10:30:38.014
106, 38.89, -20.95, 0.00, 0.00, 0.000, 0.000, 0.000, 10:30:38.015
107, 26.29, -30.60, 0.00, 0.00, 0.000, 0.000, 0.000, 10:30:38.015
108, 19.49, -28.80, 0.00, 0.00, 0.000, 0.000, 0.000, 10:30:38.015
109, 37.06, -18.75, 0.00, 0.00, 0.000, 0.000, 0.000, 10:30:38.030
110, 38.89, -19.94, 0.00, 0.00, 0.000, 0.000, 0.000, 10:30:38.030
111, 24.44, -25.51, 0.00, 0.00, 0.000, 0.000, 0.000, 10:30:38.045
112, 23.71, -26.22, 0.00, 0.00, 0.000, 0.000, 0.000, 10:30:38.046
113, 35.19, -19.54, 0.00, 0.00, 0.000, 0.000, 0.000, 10:30:38.046
114, 40.04, -24.36, 0.00, 0.00, 0.000, 0.000, 0.000, 10:30:38.046
115, 26.77, -29.07, 0.00, 0.00, 0.000, 0.000, 0.000, 10:30:38.060
116, 21.67, -26.42, 0.00, 0.00, 0.000, 0.000, 0.000, 10:30:38.060
117, 33.93, -23.08, 0.00, 0.00, 0.000, 0.000, 0.000, 10:30:38.075
118, 40.86, -20.50, 0.00, 0.00, 0.000, 0.000, 0.000, 10:30:38.075
119, 24.55, -24.08, 0.00, 0.00, 0.000, 0.000, 0.000, 10:30:38.075
120, 22.96, -26.92, 0.00, 0.00, 0.000, 0.000, 0.000, 10:30:38.075
121, 34.91, -23.48, 0.00, 0.00, 0.000, 0.000, 0.000, 10:30:38.090
122, 40.09, -23.01, 0.00, 0.00, 0.000, 0.000, 0.000, 10:30:38.090
123, 22.25, -25.86, 0.00, 0.00, 0.000, 0.000, 0.000, 10:30:38.104
124, 19.97, -21.65, 0.00, 0.00, 0.000, 0.000, 0.000, 10:30:38.104
125, 33.89, -16.06, 0.00, 0.00, 0.000, 0.000, 0.000, 10:30:38.105
126, 37.51, -22.08, 0.00, 0.00, 0.000, 0.000, 0.000, 10:30:38.105
127, 25.41, -25.09, 0.00, 0.00, 0.000, 0.000, 0.000, 10:30:38.120
128, 21.08, -28.02, 0.00, 0.00, 0.000, 0.000, 0.000, 10:30:38.120
129, 37.12, -17.57, 0.00, 0.00, 0.000, 0.000, 0.000, 10:30:38.134
130, 41.87, -21.84, 0.00, 0.00, 0.000, 0.000, 0.000, 10:30:38.134
131, 28.84, -28.67, 0.00, 0.00, 0.000, 0.000, 0.000, 10:30:38.135
132, 23.94, -24.90, 0.00, 0.00, 0.000, 0.000, 0.000, 10:30:38.135
133, 38.22, -21.04, 0.00, 0.00, 0.000, 0.000, 0.000, 10:30:38.150
134, 40.44, -18.77, 0.00, 0.00, 0.000, 0.000, 0.000, 10:30:38.150
135, 28.24, -27.71, 0.00, 0.00, 0.000, 0.000, 0.000, 10:30:38.164
136, 25.51, -26.72, 0.00, 0.00, 0.000, 0.000, 0.000, 10:30:38.164
137, 37.53, -22.41, 0.00, 0.00, 0.000, 0.000, 0.000, 10:30:38.165
138, 40.69, -24.29, 0.00, 0.00, 0.000, 0.000, 0.000, 10:30:38.165
139, 30.76, -26.15, 0.00, 0.00, 0.000, 0.000, 0.000, 10:30:38.180
140, 25.06, -25.48, 0.00, 0.00, 0.000, 0.000, 0.000, 10:30:38.180
141, 35.21, -18.30, 0.00, 0.00, 0.000, 0.000, 0.000, 10:30:38.194
142, 42.09, -24.08, 0.00, 0.00, 0.000, 0.000, 0.000, 10:30:38.195
143, 28.21, -25.95, 0.00, 0.00, 0.000, 0.000, 0.000, 10:30:38.195
144, 22.74, -22.21, 0.00, 0.00, 0.000, 0.000, 0.000, 10:30:38.195
145, 35.27, -16.41, 0.00, 0.00, 0.000, 0.000, 0.000, 10:30:38.209
146, 38.22, -23.90, 0.00, 0.00, 0.000, 0.000, 0.000, 10:30:38.209
147, 29.47, -28.51, 0.00, 0.00, 0.000, 0.000, 0.000, 10:30:38.224
148, 29.12, -22.83, 0.00, 0.00, 0.000, 0.000, 0.000, 10:30:38.224
149, 40.08, -17.21, 0.00, 0.00, 0.000, 0.000, 0.000, 10:30:38.226
150, 39.87, -22.33, 0.00, 0.00, 0.000, 0.000, 0.000, 10:30:38.226
151, 27.83, -26.12, 0.00, 0.00, 0.000, 0.000, 0.000, 10:30:38.239
152, 26.75, -23.06, 0.00, 0.00, 0.000, 0.000, 0.000, 10:30:38.240
153, 37.25, -18.35, 0.00, 0.00, 0.000, 0.000, 0.000, 10:30:38.255
154, 39.48, -23.25, 0.00, 0.00, 0.000, 0.000, 0.000, 10:30:38.255
155, 26.64, -26.03, 0.00, 0.00, 0.000, 0.000, 0.000, 10:30:38.255
156, 26.09, -23.84, 0.00, 0.00, 0.000, 0.000, 0.000, 10:30:38.255
157, 38.72, -20.35, 0.00, 0.00, 0.000, 0.000, 0.000, 10:30:38.269
158, 40.09, -22.41, 0.00, 0.00, 0.000, 0.000, 0.000, 10:30:38.269
159, 29.12, -26.16, 0.00, 0.00, 0.000, 0.000, 0.000, 10:30:38.285
160, 27.40, -29.72, 0.00, 0.00, 0.000, 0.000, 0.000, 10:30:38.285
161, 38.19, -19.80, 0.00, 0.00, 0.000, 0.000, 0.000, 10:30:38.285
162, 40.61, -26.74, 0.00, 0.00, 0.000, 0.000, 0.000, 10:30:38.285
163, 28.92, -29.68, 0.00, 0.00, 0.000, 0.000, 0.000, 10:30:38.300
164, 25.53, -23.82, 0.00, 0.00, 0.000, 0.000, 0.000, 10:30:38.300
165, 37.45, -20.28, 0.00, 0.00, 0.000, 0.000, 0.000, 10:30:38.314
166, 44.32, -21.34, 0.00, 0.00, 0.000, 0.000, 0.000, 10:30:38.315
167, 27.82, -29.88, 0.00, 0.00, 0.000, 0.000, 0.000, 10:30:38.315
168, 28.32, -25.04, 0.00, 0.00, 0.000, 0.000, 0.000, 10:30:38.315
169, 38.86, -18.66, 0.00, 0.00, 0.000, 0.000, 0.000, 10:30:38.330
170, 40.97, -23.68, 0.00, 0.00, 0.000, 0.000, 0.000, 10:30:38.330
171, 30.21, -28.82, 0.00, 0.00, 0.000, 0.000, 0.000, 10:30:38.345
172, 27.39, -25.96, 0.00, 0.00, 0.000, 0.000, 0.000, 10:30:38.345
173, 36.78, -19.64, 0.00, 0.00, 0.000, 0.000, 0.000, 10:30:38.353
174, 40.58, -22.46, 0.00, 0.00, 0.000, 0.000, 0.000, 10:30:38.353
175, 27.81, -25.27, 0.00, 0.00, 0.000, 0.000, 0.000, 10:30:38.360
176, 25.32, -24.48, 0.00, 0.00, 0.000, 0.000, 0.000, 10:30:38.360
177, 33.47, -20.47, 0.00, 0.00, 0.000, 0.000, 0.000, 10:30:38.374
178, 40.88, -19.97, 0.00, 0.00, 0.000, 0.000, 0.000, 10:30:38.375
179, 27.39, -26.91, 0.00, 0.00, 0.000, 0.000, 0.000, 10:30:38.375
180, 23.30, -25.22, 0.00, 0.00, 0.000, 0.000, 0.000, 10:30:38.375
181, 37.68, -19.68, 0.00, 0.00, 0.000, 0.000, 0.000, 10:30:38.390
182, 39.62, -20.67, 0.00, 0.00, 0.000, 0.000, 0.000, 10:30:38.390
183, 27.69, -24.08, 0.00, 0.00, 0.000, 0.000, 0.000, 10:30:38.404
184, 25.52, -24.10, 0.00, 0.00, 0.000, 0.000, 0.000, 10:30:38.404
185, 37.48, -17.68, 0.00, 0.00, 0.000, 0.000, 0.000, 10:30:38.405
186, 38.08, -20.51, 0.00, 0.00, 0.000, 0.000, 0.000, 10:30:38.405
187, 28.30, -22.96, 0.00, 0.00, 0.000, 0.000, 0.000, 10:30:38.420
188, 25.35, -27.51, 0.00, 0.00, 0.000, 0.000, 0.000, 10:30:38.420
189, 41.77, -19.94, 0.00, 0.00, 0.000, 0.000, 0.000, 10:30:38.435
190, 41.51, -22.64, 0.00, 0.00, 0.000, 0.000, 0.000, 10:30:38.435
191, 29.89, -23.49, 0.00, 0.00, 0.000, 0.000, 0.000, 10:30:38.436
192, 29.23, -20.37, 0.00, 0.00, 0.000, 0.000, 0.000, 10:30:38.436
193, 41.61, -19.29, 0.00, 0.00, 0.000, 0.000, 0.000, 10:30:38.450
194, 41.99, -19.28, 0.00, 0.00, 0.000, 0.000, 0.000, 10:30:38.450
195, 27.95, -22.32, 0.00, 0.00, 0.000, 0.000, 0.000, 10:30:38.465
196, 24.80, -21.00, 0.00, 0.00, 0.000, 0.000, 0.000, 10:30:38.465
197, 38.73, -16.89, 0.00, 0.00, 0.000, 0.000, 0.000, 10:30:38.465
198, 41.56, -22.67, 0.00, 0.00, 0.000, 0.000, 0.000, 10:30:38.465
199, 28.32, -26.85, 0.00, 0.00, 0.000, 0.000, 0.000, 10:30:38.479
200, 23.77, -24.15, 0.00, 0.00, 0.000, 0.000, 0.000, 10:30:38.480
0, 37.52, -16.86, 0.00, 0.00, 0.000, 0.000, 0.000, 10:30:38.480
1, 36.95, -20.15, 0.00, 0.00, 0.000, 0.000, 0.000, 10:30:38.495
2, 26.01, -21.32, 0.00, 0.00, 0.000, 0.000, 0.000, 10:30:38.495
3, 21.43, -22.72, 0.00, 0.00, 0.000, 0.000, 0.000, 10:30:38.510
4, 33.86, -11.05, 0.00, 0.00, 0.000, 0.000, 0.000, 10:30:38.510
5, 36.39, -18.22, 0.00, 0.00, 0.000, 0.000, 0.000, 10:30:38.510
6, 22.97, -21.95, 0.00, 0.00, 0.000, 0.000, 0.000, 10:30:38.510
7, 20.13, -20.56, 0.00, 0.00, 0.000, 0.000, 0.000, 10:30:38.525
8, 30.51, -12.17, 0.00, 0.00, 0.000, 0.000, 0.000, 10:30:38.525
9, 33.86, -20.30, 0.00, 0.00, 0.000, 0.000, 0.000, 10:30:38.539
10, 22.34, -20.08, 0.00, 0.00, 0.000, 0.000, 0.000, 10:30:38.539
11, 20.11, -23.23, 0.00, 0.00, 0.000, 0.000, 0.000, 10:30:38.540
12, 34.11, -15.91, 0.00, 0.00, 0.000, 0.000, 0.000, 10:30:38.540
13, 33.98, -24.57, 0.00, 0.00, 0.000, 0.000, 0.000, 10:30:38.556
14, 22.69, -23.02, 0.00, 0.00, 0.000, 0.000, 0.000, 10:30:38.556
15, 17.60, -21.97, 0.00, 0.00, 0.000, 0.000, 0.000, 10:30:38.569
16, 34.13, -11.00, 0.00, 0.00, 0.000, 0.000, 0.000, 10:30:38.570
17, 38.61, -18.67, 0.00, 0.00, 0.000, 0.000, 0.000, 10:30:38.570
18, 23.48, -24.98, 0.00, 0.00, 0.000, 0.000, 0.000, 10:30:38.570
19, 22.31, -18.79, 0.00, 0.00, 0.000, 0.000, 0.000, 10:30:38.584
20, 33.04, -13.23, 0.00, 0.00, 0.000, 0.000, 0.000, 10:30:38.585
21, 36.79, -20.47, 0.00, 0.00, 0.000, 0.000, 0.000, 10:30:38.599
22, 24.45, -25.49, 0.00, 0.00, 0.000, 0.000, 0.000, 10:30:38.599
23, 18.95, -19.66, 0.00, 0.00, 0.000, 0.000, 0.000, 10:30:38.600
24, 34.15, -14.15, 0.00, 0.00, 0.000, 0.000, 0.000, 10:30:38.600
25, 40.56, -17.95, 0.00, 0.00, 0.000, 0.000, 0.000, 10:30:38.615
26, 28.23, -17.67, 0.00, 0.00, 0.000, 0.000, 0.000, 10:30:38.615
27, 26.04, -18.38, 0.00, 0.00, 0.000, 0.000, 0.000, 10:30:38.630
28, 36.78, -12.75, 0.00, 0.00, 0.000, 0.000, 0.000, 10:30:38.630
29, 37.60, -17.96, 0.00, 0.00, 0.000, 0.000, 0.000, 10:30:38.630
30, 25.52, -19.58, 0.00, 0.00, 0.000, 0.000, 0.000, 10:30:38.631
31, 22.38, -17.89, 0.00, 0.00, 0.000, 0.000, 0.000, 10:30:38.644
32, 35.58, -7.85, 0.00, 0.00, 0.000, 0.000, 0.000, 10:30:38.645
33, 37.54, -18.59, 0.00, 0.00, 0.000, 0.000, 0.000, 10:30:38.659
34, 27.88, -22.22, 0.00, 0.00, 0.000, 0.000, 0.000, 10:30:38.659
35, 23.26, -19.84, 0.00, 0.00, 0.000, 0.000, 0.000, 10:30:38.661
36, 35.02, -15.04, 0.00, 0.00, 0.000, 0.000, 0.000, 10:30:38.661
37, 37.86, -25.52, 0.00, 0.00, 0.000, 0.000, 0.000, 10:30:38.675
38, 23.32, -23.07, 0.00, 0.00, 0.000, 0.000, 0.000, 10:30:38.675
39, 24.83, -22.06, 0.00, 0.00, 0.000, 0.000, 0.000, 10:30:38.689
40, 37.37, -11.19, 0.00, 0.00, 0.000, 0.000, 0.000, 10:30:38.689
41, 34.42, -16.46, 0.00, 0.00, 0.000, 0.000, 0.000, 10:30:38.690
42, 23.03, -23.83, 0.00, 0.00, 0.000, 0.000, 0.000, 10:30:38.690
43, 23.49, -22.76, 0.00, 0.00, 0.000, 0.000, 0.000, 10:30:38.704
44, 34.14, -9.32, 0.00, 0.00, 0.000, 0.000, 0.000, 10:30:38.704
45, 35.50, -19.30, 0.00, 0.00, 0.000, 0.000, 0.000, 10:30:38.721
46, 22.65, -20.95, 0.00, 0.00, 0.000, 0.000, 0.000, 10:30:38.721
47, 19.82, -18.53, 0.00, 0.00, 0.000, 0.000, 0.000, 10:30:38.721
48, 34.66, -13.14, 0.00, 0.00, 0.000, 0.000, 0.000, 10:30:38.721
49, 34.35, -21.47, 0.00, 0.00, 0.000, 0.000, 0.000, 10:30:38.735
50, 22.27, -20.39, 0.00, 0.00, 0.000, 0.000, 0.000, 10:30:38.735
51, 20.71, -19.38, 0.00, 0.00, 0.000, 0.000, 0.000, 10:30:38.750
52, 35.48, -13.49, 0.00, 0.00, 0.000, 0.000, 0.000, 10:30:38.750
53, 40.22, -19.92, 0.00, 0.00, 0.000, 0.000, 0.000, 10:30:38.750
54, 21.91, -24.18, 0.00, 0.00, 0.000, 0.000, 0.000, 10:30:38.750
55, 22.14, -21.70, 0.00, 0.00, 0.000, 0.000, 0.000, 10:30:38.765
56, 37.48, -8.55, 0.00, 0.00, 0.000, 0.000, 0.000, 10:30:38.765
57, 35.61, -19.40, 0.00, 0.00, 0.000, 0.000, 0.000, 10:30:38.779
58, 29.57, -24.58, 0.00, 0.00, 0.000, 0.000, 0.000, 10:30:38.779
59, 23.79, -21.42, 0.00, 0.00, 0.000, 0.000, 0.000, 10:30:38.786
60, 33.50, -15.12, 0.00, 0.00, 0.000, 0.000, 0.000, 10:30:38.787
61, 38.03, -20.60, 0.00, 0.00, 0.000, 0.000, 0.000, 10:30:38.794
62, 21.90, -21.73, 0.00, 0.00, 0.000, 0.000, 0.000, 10:30:38.794
63, 20.73, -18.05, 0.00, 0.00, 0.000, 0.000, 0.000, 10:30:38.809
64, 33.53, -14.41, 0.00, 0.00, 0.000, 0.000, 0.000, 10:30:38.809
65, 36.91, -17.63, 0.00, 0.00, 0.000, 0.000, 0.000, 10:30:38.810
66, 23.73, -20.32, 0.00, 0.00, 0.000, 0.000, 0.000, 10:30:38.810
67, 23.92, -23.64, 0.00, 0.00, 0.000, 0.000, 0.000, 10:30:38.826
68, 34.94, -13.75, 0.00, 0.00, 0.000, 0.000, 0.000, 10:30:38.826
69, 34.51, -18.81, 0.00, 0.00, 0.000, 0.000, 0.000, 10:30:38.840
70, 24.79, -26.20, 0.00, 0.00, 0.000, 0.000, 0.000, 10:30:38.840
71, 21.62, -21.39, 0.00, 0.00, 0.000, 0.000, 0.000, 10:30:38.840
72, 35.77, -9.87, 0.00, 0.00, 0.000, 0.000, 0.000, 10:30:38.840
73, 37.47, -17.52, 0.00, 0.00, 0.000, 0.000, 0.000, 10:30:38.855
74, 20.80, -18.63, 0.00, 0.00, 0.000, 0.000, 0.000, 10:30:38.855
75, 22.83, -18.49, 0.00, 0.00, 0.000, 0.000, 0.000, 10:30:38.870
76, 33.57, -12.06, 0.00, 0.00, 0.000, 0.000, 0.000, 10:30:38.870
77, 35.94, -17.65, 0.00, 0.00, 0.000, 0.000, 0.000, 10:30:38.870
78, 24.16, -24.77, 0.00, 0.00, 0.000, 0.000, 0.000, 10:30:38.870
79, 22.36, -20.93, 0.00, 0.00, 0.000, 0.000, 0.000, 10:30:38.884
80, 36.55, -9.84, 0.00, 0.00, 0.000, 0.000, 0.000, 10:30:38.885
81, 39.16, -16.74, 0.00, 0.00, 0.000, 0.000, 0.000, 10:30:38.900
82, 25.95, -19.28, 0.00, 0.00, 0.000, 0.000, 0.000, 10:30:38.900
83, 22.32, -18.76, 0.00, 0.00, 0.000, 0.000, 0.000, 10:30:38.900
84, 33.99, -8.42, 0.00, 0.00, 0.000, 0.000, 0.000, 10:30:38.900
85, 34.56, -14.68, 0.00, 0.00, 0.000, 0.000, 0.000, 10:30:38.914
86, 25.06, -24.43, 0.00, 0.00, 0.000, 0.000, 0.000, 10:30:38.914
87, 20.89, -20.43, 0.00, 0.00, 0.000, 0.000, 0.000, 10:30:38.929
88, 32.64, -5.39, 0.00, 0.00, 0.000, 0.000, 0.000, 10:30:38.929
89, 31.08, -2.19, 0.00, 0.00, 0.000, 0.000, 0.000, 10:30:38.929
90, 14.55, -19.82, 0.00, 0.00, 0.000, 0.000, 0.000, 10:30:38.930
91, 20.39, -18.77, 0.00, 0.00, 0.000, 0.000, 0.000, 10:30:38.945
92, 29.31, -8.21, 0.00, 0.00, 0.000, 0.000, 0.000, 10:30:38.945
93, 32.93, -5.78, 0.00, 0.00, 0.000, 0.000, 0.000, 10:30:38.959
94, 18.34, -21.50, 0.00, 0.00, 0.000, 0.000, 0.000, 10:30:38.959
95, 15.40, -19.41, 0.00, 0.00, 0.000, 0.000, 0.000, 10:30:38.959
96, 29.28, -14.28, 0.00, 0.00, 0.000, 0.000, 0.000, 10:30:38.959
97, 31.24, -12.36, 0.00, 0.00, 0.000, 0.000, 0.000, 10:30:38.974
98, 17.01, -21.67, 0.00, 0.00, 0.000, 0.000, 0.000, 10:30:38.975
99, 16.83, -19.95, 0.00, 0.00, 0.000, 0.000, 0.000, 10:30:38.989
100, 33.32, -12.25, 0.00, 0.00, 0.000, 0.000, 0.000, 10:30:38.989
101, 37.08, -17.37, 0.00, 0.00, 0.000, 0.000, 0.000, 10:30:38.990
102, 24.20, -25.65, 0.00, 0.00, 0.000, 0.000, 0.000, 10:30:38.990
103, 20.91, -20.08, 0.00, 0.00, 0.000, 0.000, 0.000, 10:30:39.005
104, 35.14, -9.34, 0.00, 0.00, 0.000, 0.000, 0.000, 10:30:39.005
105, 34.98, -21.32, 0.00, 0.00, 0.000, 0.000, 0.000, 10:30:39.021
106, 24.14, -23.65, 0.00, 0.00, 0.000, 0.000, 0.000, 10:30:39.021
107, 20.12, -21.83, 0.00, 0.00, 0.000, 0.000, 0.000, 10:30:39.022
108, 32.78, -14.01, 0.00, 0.00, 0.000, 0.000, 0.000, 10:30:39.022
109, 36.60, -21.50, 0.00, 0.00, 0.000, 0.000, 0.000, 10:30:39.036
110, 22.81, -23.18, 0.00, 0.00, 0.000, 0.000, 0.000, 10:30:39.036
111, 21.39, -20.51, 0.00, 0.00, 0.000, 0.000, 0.000, 10:30:39.049
112, 33.81, -6.87, 0.00, 0.00, 0.000, 0.000, 0.000, 10:30:39.049
113, 34.67, -14.10, 0.00, 0.00, 0.000, 0.000, 0.000, 10:30:39.057
114, 20.44, -24.80, 0.00, 0.00, 0.000, 0.000, 0.000, 10:30:39.057
115, 18.64, -20.09, 0.00, 0.00, 0.000, 0.000, 0.000, 10:30:39.064
116, 32.75, -8.73, 0.00, 0.00, 0.000, 0.000, 0.000, 10:30:39.065
117, 34.55, -17.03, 0.00, 0.00, 0.000, 0.000, 0.000, 10:30:39.080
118, 20.66, -24.54, 0.00, 0.00, 0.000, 0.000, 0.000, 10:30:39.080
119, 18.28, -19.13, 0.00, 0.00, 0.000, 0.000, 0.000, 10:30:39.081
120, 35.16, -6.80, 0.00, 0.00, 0.000, 0.000, 0.000, 10:30:39.081
121, 34.03, -10.55, 0.00, 0.00, 0.000, 0.000, 0.000, 10:30:39.095
122, 20.08, -23.51, 0.00, 0.00, 0.000, 0.000, 0.000, 10:30:39.095
123, 21.08, -20.27, 0.00, 0.00, 0.000, 0.000, 0.000, 10:30:39.109
124, 33.06, -6.53, 0.00, 0.00, 0.000, 0.000, 0.000, 10:30:39.109
125, 32.69, -14.84, 0.00, 0.00, 0.000, 0.000, 0.000, 10:30:39.109
126, 19.97, -23.24, 0.00, 0.00, 0.000, 0.000, 0.000, 10:30:39.110
127, 16.92, -23.76, 0.00, 0.00, 0.000, 0.000, 0.000, 10:30:39.124
128, 30.40, -6.82, 0.00, 0.00, 0.000, 0.000, 0.000, 10:30:39.124
129, 35.88, -9.06, 0.00, 0.00, 0.000, 0.000, 0.000, 10:30:39.139
130, 16.42, -24.03, 0.00, 0.00, 0.000, 0.000, 0.000, 10:30:39.139
131, 17.44, -22.76, 0.00, 0.00, 0.000, 0.000, 0.000, 10:30:39.139
132, 33.02, -9.47, 0.00, 0.00, 0.000, 0.000, 0.000, 10:30:39.140
133, 30.94, -6.53, 0.00, 0.00, 0.000, 0.000, 0.000, 10:30:39.155
134, 18.91, -21.51, 0.00, 0.00, 0.000, 0.000, 0.000, 10:30:39.155
135, 17.53, -20.94, 0.00, 0.00, 0.000, 0.000, 0.000, 10:30:39.169
136, 32.64, -12.86, 0.00, 0.00, 0.000, 0.000, 0.000, 10:30:39.169
137, 34.71, -12.53, 0.00, 0.00, 0.000, 0.000, 0.000, 10:30:39.170
138, 17.72, -23.44, 0.00, 0.00, 0.000, 0.000, 0.000, 10:30:39.170
139, 18.84, -22.76, 0.00, 0.00, 0.000, 0.000, 0.000, 10:30:39.185
140, 32.19, -5.20, 0.00, 0.00, 0.000, 0.000, 0.000, 10:30:39.185
141, 30.67, -10.33, 0.00, 0.00, 0.000, 0.000, 0.000, 10:30:39.199
142, 21.11, -22.99, 0.00, 0.00, 0.000, 0.000, 0.000, 10:30:39.199
143, 19.31, -21.67, 0.00, 0.00, 0.000, 0.000, 0.000, 10:30:39.200
144, 33.54, -16.02, 0.00, 0.00, 0.000, 0.000, 0.000, 10:30:39.200
145, 32.37, -14.45, 0.00, 0.00, 0.000, 0.000, 0.000, 10:30:39.214
146, 19.61, -21.12, 0.00, 0.00, 0.000, 0.000, 0.000, 10:30:39.214
147, 21.00, -21.08, 0.00, 0.00, 0.000, 0.000, 0.000, 10:30:39.229
148, 36.04, -12.50, 0.00, 0.00, 0.000, 0.000, 0.000, 10:30:39.230
149, 36.25, -13.78, 0.00, 0.00, 0.000, 0.000, 0.000, 10:30:39.230
150, 17.08, -20.58, 0.00, 0.00, 0.000, 0.000, 0.000, 10:30:39.230
151, 17.19, -20.59, 0.00, 0.00, 0.000, 0.000, 0.000, 10:30:39.245
152, 31.98, -6.71, 0.00, 0.00, 0.000, 0.000, 0.000, 10:30:39.245
153, 34.39, -13.71, 0.00, 0.00, 0.000, 0.000, 0.000, 10:30:39.260
154, 16.29, -24.91, 0.00, 0.00, 0.000, 0.000, 0.000, 10:30:39.260
155, 16.67, -23.40, 0.00, 0.00, 0.000, 0.000, 0.000, 10:30:39.260
156, 31.00, -14.75, 0.00, 0.00, 0.000, 0.000, 0.000, 10:30:39.260
157, 32.31, -14.45, 0.00, 0.00, 0.000, 0.000, 0.000, 10:30:39.275
158, 15.94, -26.49, 0.00, 0.00, 0.000, 0.000, 0.000, 10:30:39.275
159, 19.84, -22.49, 0.00, 0.00, 0.000, 0.000, 0.000, 10:30:39.290
160, 33.02, -12.44, 0.00, 0.00, 0.000, 0.000, 0.000, 10:30:39.290
161, 34.84, -16.52, 0.00, 0.00, 0.000, 0.000, 0.000, 10:30:39.291
162, 19.85, -23.00, 0.00, 0.00, 0.000, 0.000, 0.000, 10:30:39.292
163, 20.73, -23.40, 0.00, 0.00, 0.000, 0.000, 0.000, 10:30:39.312
164, 33.10, -13.22, 0.00, 0.00, 0.000, 0.000, 0.000, 10:30:39.312
165, 36.25, -17.41, 0.00, 0.00, 0.000, 0.000, 0.000, 10:30:39.319
166, 21.57, -25.38, 0.00, 0.00, 0.000, 0.000, 0.000, 10:30:39.320
167, 19.84, -21.51, 0.00, 0.00, 0.000, 0.000, 0.000, 10:30:39.321
168, 36.52, -14.49, 0.00, 0.00, 0.000, 0.000, 0.000, 10:30:39.321
169, 34.81, -17.70, 0.00, 0.00, 0.000, 0.000, 0.000, 10:30:39.335
170, 22.31, -25.37, 0.00, 0.00, 0.000, 0.000, 0.000, 10:30:39.335
171, 18.31, -21.32, 0.00, 0.00, 0.000, 0.000, 0.000, 10:30:39.350
172, 31.98, -14.85, 0.00, 0.00, 0.000, 0.000, 0.000, 10:30:39.350
173, 32.72, -15.58, 0.00, 0.00, 0.000, 0.000, 0.000, 10:30:39.350
174, 18.78, -21.72, 0.00, 0.00, 0.000, 0.000, 0.000, 10:30:39.350
175, 18.86, -20.91, 0.00, 0.00, 0.000, 0.000, 0.000, 10:30:39.379
176, 33.85, -11.82, 0.00, 0.00, 0.000, 0.000, 0.000, 10:30:39.379
177, 37.07, -19.09, 0.00, 0.00, 0.000, 0.000, 0.000, 10:30:39.380
178, 20.38, -23.51, 0.00, 0.00, 0.000, 0.000, 0.000, 10:30:39.380
179, 24.25, -20.91, 0.00, 0.00, 0.000, 0.000, 0.000, 10:30:39.380
180, 33.60, -15.62, 0.00, 0.00, 0.000, 0.000, 0.000, 10:30:39.381
181, 38.66, -21.11, 0.00, 0.00, 0.000, 0.000, 0.000, 10:30:39.394
182, 20.62, -22.53, 0.00, 0.00, 0.000, 0.000, 0.000, 10:30:39.394
183, 17.40, -21.09, 0.00, 0.00, 0.000, 0.000, 0.000, 10:30:39.409
184, 34.23, -15.97, 0.00, 0.00, 0.000, 0.000, 0.000, 10:30:39.409
185, 36.44, -20.58, 0.00, 0.00, 0.000, 0.000, 0.000, 10:30:39.410
186, 20.77, -24.20, 0.00, 0.00, 0.000, 0.000, 0.000, 10:30:39.410
187, 20.13, -24.99, 0.00, 0.00, 0.000, 0.000, 0.000, 10:30:39.425
188, 34.85, -12.73, 0.00, 0.00, 0.000, 0.000, 0.000, 10:30:39.425
189, 36.05, -16.22, 0.00, 0.00, 0.000, 0.000, 0.000, 10:30:39.440
190, 20.52, -26.12, 0.00, 0.00, 0.000, 0.000, 0.000, 10:30:39.440
191, 19.24, -21.39, 0.00, 0.00, 0.000, 0.000, 0.000, 10:30:39.441
192, 33.31, -11.95, 0.00, 0.00, 0.000, 0.000, 0.000, 10:30:39.441
193, 35.17, -22.56, 0.00, 0.00, 0.000, 0.000, 0.000, 10:30:39.455
194, 22.21, -22.92, 0.00, 0.00, 0.000, 0.000, 0.000, 10:30:39.455
195, 24.04, -22.73, 0.00, 0.00, 0.000, 0.000, 0.000, 10:30:39.470
