%OpenBCI Raw EEG Data
%
%Sample Rate = 200.0 Hz
%First Column = SampleIndex
%Last Column = Timestamp 
%Other Columns = EEG data in microvolts followed by Accel Data (in G) interleaved with Aux Data
0, 12.46, -5.45, 0.00, 0.00, 0.000, 0.000, 0.000, 10:07:53.380
1, 8.98, -5.39, 0.00, 0.00, 0.000, 0.000, 0.000, 10:07:53.394
2, 11.20, 1.86, 0.00, 0.00, 0.000, 0.000, 0.000, 10:07:53.394
3, 15.39, -2.52, 0.00, 0.00, 0.000, 0.000, 0.000, 10:07:53.407
4, 12.65, -3.58, 0.00, 0.00, 0.000, 0.000, 0.000, 10:07:53.408
5, 10.32, -1.31, 0.00, 0.00, 0.000, 0.000, 0.000, 10:07:53.408
6, 13.20, -1.52, 0.00, 0.00, 0.000, 0.000, 0.000, 10:07:53.408
7, 15.32, 0.16, 0.00, 0.00, 0.000, 0.000, 0.000, 10:07:53.422
8, 12.39, -1.49, 0.00, 0.00, 0.000, 0.000, 0.000, 10:07:53.422
9, 9.87, -0.77, 0.00, 0.00, 0.000, 0.000, 0.000, 10:07:53.438
10, 12.92, -0.02, 0.00, 0.00, 0.000, 0.000, 0.000, 10:07:53.438
11, 15.14, 0.88, 0.00, 0.00, 0.000, 0.000, 0.000, 10:07:53.439
12, 14.78, -4.66, 0.00, 0.00, 0.000, 0.000, 0.000, 10:07:53.439
13, 7.84, -0.50, 0.00, 0.00, 0.000, 0.000, 0.000, 10:07:53.459
14, 12.04, 2.99, 0.00, 0.00, 0.000, 0.000, 0.000, 10:07:53.460
15, 16.87, -3.88, 0.00, 0.00, 0.000, 0.000, 0.000, 10:07:53.467
16, 14.37, -4.71, 0.00, 0.00, 0.000, 0.000, 0.000, 10:07:53.467
17, 8.36, -1.97, 0.00, 0.00, 0.000, 0.000, 0.000, 10:07:53.467
18, 13.43, -3.34, 0.00, 0.00, 0.000, 0.000, 0.000, 10:07:53.468
19, 17.26, -2.37, 0.00, 0.00, 0.000, 0.000, 0.000, 10:07:53.483
20, 11.68, -0.89, 0.00, 0.00, 0.000, 0.000, 0.000, 10:07:53.483
21, 10.40, -2.28, 0.00, 0.00, 0.000, 0.000, 0.000, 10:07:53.497
22, 15.59, 1.32, 0.00, 0.00, 0.000, 0.000, 0.000, 10:07:53.498
23, 14.39, 3.51, 0.00, 0.00, 0.000, 0.000, 0.000, 10:07:53.498
24, 12.67, -0.85, 0.00, 0.00, 0.000, 0.000, 0.000, 10:07:53.498
25, 6.76, -3.11, 0.00, 0.00, 0.000, 0.000, 0.000, 10:07:53.512
26, 10.64, 8.47, 0.00, 0.00, 0.000, 0.000, 0.000, 10:07:53.512
27, 18.63, -4.71, 0.00, 0.00, 0.000, 0.000, 0.000, 10:07:53.527
28, 13.68, -2.49, 0.00, 0.00, 0.000, 0.000, 0.000, 10:07:53.527
29, 9.51, -1.26, 0.00, 0.00, 0.000, 0.000, 0.000, 10:07:53.527
30, 14.89, 1.25, 0.00, 0.00, 0.000, 0.000, 0.000, 10:07:53.528
31, 17.59, -3.38, 0.00, 0.00, 0.000, 0.000, 0.000, 10:07:53.542
32, 14.66, -0.31, 0.00, 0.00, 0.000, 0.000, 0.000, 10:07:53.542
33, 9.33, -0.89, 0.00, 0.00, 0.000, 0.000, 0.000, 10:07:53.557
34, 14.23, 2.19, 0.00, 0.00, 0.000, 0.000, 0.000, 10:07:53.557
35, 20.11, 1.42, 0.00, 0.00, 0.000, 0.000, 0.000, 10:07:53.558
36, 10.71, -1.19, 0.00, 0.00, 0.000, 0.000, 0.000, 10:07:53.558
37, 13.21, 3.68, 0.00, 0.00, 0.000, 0.000, 0.000, 10:07:53.572
38, 11.88, 4.83, 0.00, 0.00, 0.000, 0.000, 0.000, 10:07:53.572
39, 19.70, -3.14, 0.00, 0.00, 0.000, 0.000, 0.000, 10:07:53.587
40, 15.47, -1.17, 0.00, 0.00, 0.000, 0.000, 0.000, 10:07:53.587
41, 10.96, 3.21, 0.00, 0.00, 0.000, 0.000, 0.000, 10:07:53.588
42, 12.16, 5.09, 0.00, 0.00, 0.000, 0.000, 0.000, 10:07:53.588
43, 18.27, -1.79, 0.00, 0.00, 0.000, 0.000, 0.000, 10:07:53.603
44, 15.37, 0.08, 0.00, 0.00, 0.000, 0.000, 0.000, 10:07:53.603
45, 10.99, 5.21, 0.00, 0.00, 0.000, 0.000, 0.000, 10:07:53.618
46, 12.98, 4.42, 0.00, 0.00, 0.000, 0.000, 0.000, 10:07:53.618
47, 17.09, 3.27, 0.00, 0.00, 0.000, 0.000, 0.000, 10:07:53.618
48, 12.75, -1.19, 0.00, 0.00, 0.000, 0.000, 0.000, 10:07:53.618
49, 10.11, 5.33, 0.00, 0.00, 0.000, 0.000, 0.000, 10:07:53.632
50, 12.84, 11.28, 0.00, 0.00, 0.000, 0.000, 0.000, 10:07:53.633
51, 16.53, -2.62, 0.00, 0.00, 0.000, 0.000, 0.000, 10:07:53.648
52, 16.58, -5.27, 0.00, 0.00, 0.000, 0.000, 0.000, 10:07:53.648
53, 12.41, 1.33, 0.00, 0.00, 0.000, 0.000, 0.000, 10:07:53.648
54, 11.90, 6.10, 0.00, 0.00, 0.000, 0.000, 0.000, 10:07:53.648
55, 15.66, -0.96, 0.00, 0.00, 0.000, 0.000, 0.000, 10:07:53.663
56, 11.94, -0.78, 0.00, 0.00, 0.000, 0.000, 0.000, 10:07:53.663
57, 9.57, 0.34, 0.00, 0.00, 0.000, 0.000, 0.000, 10:07:53.677
58, 9.53, 4.27, 0.00, 0.00, 0.000, 0.000, 0.000, 10:07:53.677
59, 12.23, 2.93, 0.00, 0.00, 0.000, 0.000, 0.000, 10:07:53.677
60, 11.09, 1.11, 0.00, 0.00, 0.000, 0.000, 0.000, 10:07:53.678
61, 8.09, -2.04, 0.00, 0.00, 0.000, 0.000, 0.000, 10:07:53.692
62, 9.25, 5.80, 0.00, 0.00, 0.000, 0.000, 0.000, 10:07:53.693
63, 15.60, -5.14, 0.00, 0.00, 0.000, 0.000, 0.000, 10:07:53.707
64, 13.15, -4.74, 0.00, 0.00, 0.000, 0.000, 0.000, 10:07:53.708
65, 6.93, 0.34, 0.00, 0.00, 0.000, 0.000, 0.000, 10:07:53.708
66, 10.27, 1.75, 0.00, 0.00, 0.000, 0.000, 0.000, 10:07:53.708
67, 14.46, -1.54, 0.00, 0.00, 0.000, 0.000, 0.000, 10:07:53.722
68, 13.89, -2.68, 0.00, 0.00, 0.000, 0.000, 0.000, 10:07:53.722
69, 10.61, -0.10, 0.00, 0.00, 0.000, 0.000, 0.000, 10:07:53.737
70, 11.50, -2.02, 0.00, 0.00, 0.000, 0.000, 0.000, 10:07:53.737
71, 15.83, -0.29, 0.00, 0.00, 0.000, 0.000, 0.000, 10:07:53.738
72, 11.81, -2.14, 0.00, 0.00, 0.000, 0.000, 0.000, 10:07:53.738
73, 7.04, -2.74, 0.00, 0.00, 0.000, 0.000, 0.000, 10:07:53.753
74, 9.82, -0.01, 0.00, 0.00, 0.000, 0.000, 0.000, 10:07:53.753
75, 17.70, -3.81, 0.00, 0.00, 0.000, 0.000, 0.000, 10:07:53.767
76, 12.97, -1.17, 0.00, 0.00, 0.000, 0.000, 0.000, 10:07:53.767
77, 6.89, 0.84, 0.00, 0.00, 0.000, 0.000, 0.000, 10:07:53.767
78, 11.37, -3.66, 0.00, 0.00, 0.000, 0.000, 0.000, 10:07:53.767
79, 16.42, -1.23, 0.00, 0.00, 0.000, 0.000, 0.000, 10:07:53.783
80, 10.32, -2.09, 0.00, 0.00, 0.000, 0.000, 0.000, 10:07:53.783
81, 7.19, -6.20, 0.00, 0.00, 0.000, 0.000, 0.000, 10:07:53.798
82, 11.85, -3.89, 0.00, 0.00, 0.000, 0.000, 0.000, 10:07:53.798
83, 16.41, -2.37, 0.00, 0.00, 0.000, 0.000, 0.000, 10:07:53.805
84, 13.11, -5.46, 0.00, 0.00, 0.000, 0.000, 0.000, 10:07:53.805
85, 7.58, -0.59, 0.00, 0.00, 0.000, 0.000, 0.000, 10:07:53.812
86, 13.35, -0.12, 0.00, 0.00, 0.000, 0.000, 0.000, 10:07:53.812
87, 15.65, -4.83, 0.00, 0.00, 0.000, 0.000, 0.000, 10:07:53.827
88, 12.84, -1.75, 0.00, 0.00, 0.000, 0.000, 0.000, 10:07:53.827
89, 6.29, -3.22, 0.00, 0.00, 0.000, 0.000, 0.000, 10:07:53.827
90, 14.64, -2.09, 0.00, 0.00, 0.000, 0.000, 0.000, 10:07:53.827
91, 16.86, -1.41, 0.00, 0.00, 0.000, 0.000, 0.000, 10:07:53.842
92, 12.69, -4.10, 0.00, 0.00, 0.000, 0.000, 0.000, 10:07:53.842
93, 13.39, -4.95, 0.00, 0.00, 0.000, 0.000, 0.000, 10:07:53.858
94, 12.19, -0.46, 0.00, 0.00, 0.000, 0.000, 0.000, 10:07:53.858
95, 15.37, -1.64, 0.00, 0.00, 0.000, 0.000, 0.000, 10:07:53.858
96, 10.72, -3.91, 0.00, 0.00, 0.000, 0.000, 0.000, 10:07:53.858
97, 7.17, 1.98, 0.00, 0.00, 0.000, 0.000, 0.000, 10:07:53.873
98, 11.01, 5.50, 0.00, 0.00, 0.000, 0.000, 0.000, 10:07:53.873
99, 14.82, 0.34, 0.00, 0.00, 0.000, 0.000, 0.000, 10:07:53.887
100, 13.64, -3.22, 0.00, 0.00, 0.000, 0.000, 0.000, 10:07:53.887
101, 12.61, 3.61, 0.00, 0.00, 0.000, 0.000, 0.000, 10:07:53.888
102, 16.24, 2.28, 0.00, 0.00, 0.000, 0.000, 0.000, 10:07:53.888
103, 18.08, -2.79, 0.00, 0.00, 0.000, 0.000, 0.000, 10:07:53.903
104, 14.92, 0.94, 0.00, 0.00, 0.000, 0.000, 0.000, 10:07:53.903
105, 10.69, 3.55, 0.00, 0.00, 0.000, 0.000, 0.000, 10:07:53.918
106, 13.96, 7.19, 0.00, 0.00, 0.000, 0.000, 0.000, 10:07:53.918
107, 15.07, 4.70, 0.00, 0.00, 0.000, 0.000, 0.000, 10:07:53.918
108, 11.17, -2.36, 0.00, 0.00, 0.000, 0.000, 0.000, 10:07:53.918
109, 10.79, 0.56, 0.00, 0.00, 0.000, 0.000, 0.000, 10:07:53.932
110, 11.78, 4.58, 0.00, 0.00, 0.000, 0.000, 0.000, 10:07:53.933
111, 16.38, -0.86, 0.00, 0.00, 0.000, 0.000, 0.000, 10:07:53.947
112, 11.87, -1.85, 0.00, 0.00, 0.000, 0.000, 0.000, 10:07:53.947
113, 10.33, 1.83, 0.00, 0.00, 0.000, 0.000, 0.000, 10:07:53.947
114, 13.17, 2.86, 0.00, 0.00, 0.000, 0.000, 0.000, 10:07:53.947
115, 18.30, -2.66, 0.00, 0.00, 0.000, 0.000, 0.000, 10:07:53.962
116, 14.05, 0.56, 0.00, 0.00, 0.000, 0.000, 0.000, 10:07:53.962
117, 11.11, 1.61, 0.00, 0.00, 0.000, 0.000, 0.000, 10:07:53.978
118, 13.23, 3.18, 0.00, 0.00, 0.000, 0.000, 0.000, 10:07:53.978
119, 14.25, -1.49, 0.00, 0.00, 0.000, 0.000, 0.000, 10:07:53.978
120, 13.55, -1.75, 0.00, 0.00, 0.000, 0.000, 0.000, 10:07:53.978
121, 14.85, 0.96, 0.00, 0.00, 0.000, 0.000, 0.000, 10:07:53.993
122, 13.19, 10.84, 0.00, 0.00, 0.000, 0.000, 0.000, 10:07:53.993
123, 17.89, 1.24, 0.00, 0.00, 0.000, 0.000, 0.000, 10:07:54.007
124, 13.07, -2.79, 0.00, 0.00, 0.000, 0.000, 0.000, 10:07:54.007
125, 11.86, 1.50, 0.00, 0.00, 0.000, 0.000, 0.000, 10:07:54.007
126, 13.19, 5.54, 0.00, 0.00, 0.000, 0.000, 0.000, 10:07:54.008
127, 18.47, 0.34, 0.00, 0.00, 0.000, 0.000, 0.000, 10:07:54.022
128, 12.39, 0.18, 0.00, 0.00, 0.000, 0.000, 0.000, 10:07:54.022
129, 9.60, -0.64, 0.00, 0.00, 0.000, 0.000, 0.000, 10:07:54.037
130, 12.92, 9.88, 0.00, 0.00, 0.000, 0.000, 0.000, 10:07:54.038
131, 18.66, 5.04, 0.00, 0.00, 0.000, 0.000, 0.000, 10:07:54.040
132, 15.54, -2.00, 0.00, 0.00, 0.000, 0.000, 0.000, 10:07:54.040
133, 9.48, -1.45, 0.00, 0.00, 0.000, 0.000, 0.000, 10:07:54.053
134, 11.52, 5.99, 0.00, 0.00, 0.000, 0.000, 0.000, 10:07:54.053
135, 18.13, -2.00, 0.00, 0.00, 0.000, 0.000, 0.000, 10:07:54.067
136, 16.18, -0.86, 0.00, 0.00, 0.000, 0.000, 0.000, 10:07:54.068
137, 11.58, 4.29, 0.00, 0.00, 0.000, 0.000, 0.000, 10:07:54.068
138, 13.62, 4.34, 0.00, 0.00, 0.000, 0.000, 0.000, 10:07:54.068
139, 13.77, 0.13, 0.00, 0.00, 0.000, 0.000, 0.000, 10:07:54.083
140, 11.02, 2.94, 0.00, 0.00, 0.000, 0.000, 0.000, 10:07:54.083
141, 7.50, 0.85, 0.00, 0.00, 0.000, 0.000, 0.000, 10:07:54.098
142, 9.03, 1.23, 0.00, 0.00, 0.000, 0.000, 0.000, 10:07:54.098
143, 17.12, 0.71, 0.00, 0.00, 0.000, 0.000, 0.000, 10:07:54.098
144, 15.86, -0.29, 0.00, 0.00, 0.000, 0.000, 0.000, 10:07:54.098
145, 8.33, -3.16, 0.00, 0.00, 0.000, 0.000, 0.000, 10:07:54.112
146, 10.66, 0.69, 0.00, 0.00, 0.000, 0.000, 0.000, 10:07:54.112
147, 16.00, -5.18, 0.00, 0.00, 0.000, 0.000, 0.000, 10:07:54.127
148, 13.68, -4.12, 0.00, 0.00, 0.000, 0.000, 0.000, 10:07:54.127
149, 8.41, -2.22, 0.00, 0.00, 0.000, 0.000, 0.000, 10:07:54.127
150, 11.85, 0.18, 0.00, 0.00, 0.000, 0.000, 0.000, 10:07:54.127
151, 12.79, -1.39, 0.00, 0.00, 0.000, 0.000, 0.000, 10:07:54.142
152, 14.46, -2.20, 0.00, 0.00, 0.000, 0.000, 0.000, 10:07:54.142
153, 10.20, -3.64, 0.00, 0.00, 0.000, 0.000, 0.000, 10:07:54.157
154, 11.52, -0.27, 0.00, 0.00, 0.000, 0.000, 0.000, 10:07:54.157
155, 11.86, 0.05, 0.00, 0.00, 0.000, 0.000, 0.000, 10:07:54.157
156, 11.15, -2.38, 0.00, 0.00, 0.000, 0.000, 0.000, 10:07:54.157
157, 10.39, 1.90, 0.00, 0.00, 0.000, 0.000, 0.000, 10:07:54.172
158, 11.96, 5.44, 0.00, 0.00, 0.000, 0.000, 0.000, 10:07:54.173
159, 13.26, 0.17, 0.00, 0.00, 0.000, 0.000, 0.000, 10:07:54.187
160, 10.66, -0.31, 0.00, 0.00, 0.000, 0.000, 0.000, 10:07:54.187
161, 8.21, -4.11, 0.00, 0.00, 0.000, 0.000, 0.000, 10:07:54.188
162, 10.92, -1.38, 0.00, 0.00, 0.000, 0.000, 0.000, 10:07:54.188
163, 16.33, 0.21, 0.00, 0.00, 0.000, 0.000, 0.000, 10:07:54.203
164, 11.95, -2.19, 0.00, 0.00, 0.000, 0.000, 0.000, 10:07:54.203
165, 7.92, -1.84, 0.00, 0.00, 0.000, 0.000, 0.000, 10:07:54.218
166, 12.91, -1.49, 0.00, 0.00, 0.000, 0.000, 0.000, 10:07:54.218
167, 15.12, -2.02, 0.00, 0.00, 0.000, 0.000, 0.000, 10:07:54.218
168, 11.32, -5.39, 0.00, 0.00, 0.000, 0.000, 0.000, 10:07:54.218
169, 11.31, -6.29, 0.00, 0.00, 0.000, 0.000, 0.000, 10:07:54.232
170, 12.32, 1.72, 0.00, 0.00, 0.000, 0.000, 0.000, 10:07:54.232
171, 15.09, -5.62, 0.00, 0.00, 0.000, 0.000, 0.000, 10:07:54.248
172, 10.72, -3.23, 0.00, 0.00, 0.000, 0.000, 0.000, 10:07:54.248
173, 8.22, -0.08, 0.00, 0.00, 0.000, 0.000, 0.000, 10:07:54.254
174, 13.62, 0.04, 0.00, 0.00, 0.000, 0.000, 0.000, 10:07:54.254
175, 17.87, -1.97, 0.00, 0.00, 0.000, 0.000, 0.000, 10:07:54.263
176, 11.76, 0.95, 0.00, 0.00, 0.000, 0.000, 0.000, 10:07:54.263
177, 9.04, -3.17, 0.00, 0.00, 0.000, 0.000, 0.000, 10:07:54.277
178, 11.19, 0.82, 0.00, 0.00, 0.000, 0.000, 0.000, 10:07:54.277
179, 16.87, -0.68, 0.00, 0.00, 0.000, 0.000, 0.000, 10:07:54.277
180, 15.10, -5.73, 0.00, 0.00, 0.000, 0.000, 0.000, 10:07:54.277
181, 13.48, -1.54, 0.00, 0.00, 0.000, 0.000, 0.000, 10:07:54.292
182, 17.08, 2.19, 0.00, 0.00, 0.000, 0.000, 0.000, 10:07:54.293
183, 19.12, -1.81, 0.00, 0.00, 0.000, 0.000, 0.000, 10:07:54.308
184, 13.48, -3.03, 0.00, 0.00, 0.000, 0.000, 0.000, 10:07:54.308
185, 10.91, -1.43, 0.00, 0.00, 0.000, 0.000, 0.000, 10:07:54.308
186, 11.74, 3.25, 0.00, 0.00, 0.000, 0.000, 0.000, 10:07:54.308
187, 19.21, -2.62, 0.00, 0.00, 0.000, 0.000, 0.000, 10:07:54.323
188, 14.33, 3.13, 0.00, 0.00, 0.000, 0.000, 0.000, 10:07:54.323
189, 9.06, 0.55, 0.00, 0.00, 0.000, 0.000, 0.000, 10:07:54.337
190, 14.56, -0.93, 0.00, 0.00, 0.000, 0.000, 0.000, 10:07:54.337
191, 17.07, -0.23, 0.00, 0.00, 0.000, 0.000, 0.000, 10:07:54.338
192, 10.69, -3.91, 0.00, 0.00, 0.000, 0.000, 0.000, 10:07:54.338
193, 7.39, 0.92, 0.00, 0.00, 0.000, 0.000, 0.000, 10:07:54.353
194, 13.29, 6.94, 0.00, 0.00, 0.000, 0.000, 0.000, 10:07:54.353
195, 17.18, -3.10, 0.00, 0.00, 0.000, 0.000, 0.000, 10:07:54.367
196, 16.44, -0.89, 0.00, 0.00, 0.000, 0.000, 0.000, 10:07:54.368
197, 12.30, 3.73, 0.00, 0.00, 0.000, 0.000, 0.000, 10:07:54.368
198, 13.07, 8.55, 0.00, 0.00, 0.000, 0.000, 0.000, 10:07:54.368
199, 20.69, 1.46, 0.00, 0.00, 0.000, 0.000, 0.000, 10:07:54.383
200, 13.10, -0.22, 0.00, 0.00, 0.000, 0.000, 0.000, 10:07:54.383
0, 12.73, 2.65, 0.00, 0.00, 0.000, 0.000, 0.000, 10:07:54.384
1, 14.52, 6.50, 0.00, 0.00, 0.000, 0.000, 0.000, 10:07:54.398
2, 16.34, 1.88, 0.00, 0.00, 0.000, 0.000, 0.000, 10:07:54.398
3, 12.88, -3.67, 0.00, 0.00, 0.000, 0.000, 0.000, 10:07:54.413
4, 9.37, 1.24, 0.00, 0.00, 0.000, 0.000, 0.000, 10:07:54.413
5, 12.59, 10.44, 0.00, 0.00, 0.000, 0.000, 0.000, 10:07:54.413
6, 18.73, -1.19, 0.00, 0.00, 0.000, 0.000, 0.000, 10:07:54.414
7, 15.89, -1.66, 0.00, 0.00, 0.000, 0.000, 0.000, 10:07:54.427
8, 8.35, 8.83, 0.00, 0.00, 0.000, 0.000, 0.000, 10:07:54.427
9, 13.70, 11.33, 0.00, 0.00, 0.000, 0.000, 0.000, 10:07:54.442
10, 16.66, 0.51, 0.00, 0.00, 0.000, 0.000, 0.000, 10:07:54.442
11, 14.20, 0.23, 0.00, 0.00, 0.000, 0.000, 0.000, 10:07:54.442
12, 8.41, 0.56, 0.00, 0.00, 0.000, 0.000, 0.000, 10:07:54.442
13, 12.79, 7.55, 0.00, 0.00, 0.000, 0.000, 0.000, 10:07:54.457
14, 14.67, 2.22, 0.00, 0.00, 0.000, 0.000, 0.000, 10:07:54.457
15, 16.43, -1.97, 0.00, 0.00, 0.000, 0.000, 0.000, 10:07:54.473
16, 9.40, 2.41, 0.00, 0.00, 0.000, 0.000, 0.000, 10:07:54.473
17, 13.87, 6.84, 0.00, 0.00, 0.000, 0.000, 0.000, 10:07:54.473
18, 15.29, 3.01, 0.00, 0.00, 0.000, 0.000, 0.000, 10:07:54.474
19, 12.03, -2.31, 0.00, 0.00, 0.000, 0.000, 0.000, 10:07:54.488
20, 9.14, 4.96, 0.00, 0.00, 0.000, 0.000, 0.000, 10:07:54.488
21, 12.04, 4.63, 0.00, 0.00, 0.000, 0.000, 0.000, 10:07:54.502
22, 16.52, -1.89, 0.00, 0.00, 0.000, 0.000, 0.000, 10:07:54.502
23, 14.20, -3.77, 0.00, 0.00, 0.000, 0.000, 0.000, 10:07:54.502
24, 9.27, -0.74, 0.00, 0.00, 0.000, 0.000, 0.000, 10:07:54.502
25, 11.94, 0.35, 0.00, 0.00, 0.000, 0.000, 0.000, 10:07:54.517
26, 16.06, 0.88, 0.00, 0.00, 0.000, 0.000, 0.000, 10:07:54.517
27, 12.39, -3.56, 0.00, 0.00, 0.000, 0.000, 0.000, 10:07:54.532
28, 6.60, -1.79, 0.00, 0.00, 0.000, 0.000, 0.000, 10:07:54.532
29, 10.89, 4.76, 0.00, 0.00, 0.000, 0.000, 0.000, 10:07:54.532
30, 12.41, -2.72, 0.00, 0.00, 0.000, 0.000, 0.000, 10:07:54.532
31, 13.36, -1.04, 0.00, 0.00, 0.000, 0.000, 0.000, 10:07:54.547
32, 5.73, 1.34, 0.00, 0.00, 0.000, 0.000, 0.000, 10:07:54.547
33, 10.92, -0.07, 0.00, 0.00, 0.000, 0.000, 0.000, 10:07:54.563
34, 15.91, -6.80, 0.00, 0.00, 0.000, 0.000, 0.000, 10:07:54.563
35, 13.47, -4.25, 0.00, 0.00, 0.000, 0.000, 0.000, 10:07:54.563
36, 6.25, -1.34, 0.00, 0.00, 0.000, 0.000, 0.000, 10:07:54.563
37, 12.21, 2.99, 0.00, 0.00, 0.000, 0.000, 0.000, 10:07:54.577
38, 16.01, 2.35, 0.00, 0.00, 0.000, 0.000, 0.000, 10:07:54.578
39, 11.58, -3.42, 0.00, 0.00, 0.000, 0.000, 0.000, 10:07:54.592
40, 7.60, 1.03, 0.00, 0.00, 0.000, 0.000, 0.000, 10:07:54.592
41, 11.94, 2.37, 0.00, 0.00, 0.000, 0.000, 0.000, 10:07:54.592
42, 16.27, -1.43, 0.00, 0.00, 0.000, 0.000, 0.000, 10:07:54.592
43, 11.62, -3.77, 0.00, 0.00, 0.000, 0.000, 0.000, 10:07:54.607
44, 6.21, 1.24, 0.00, 0.00, 0.000, 0.000, 0.000, 10:07:54.607
45, 13.82, -1.51, 0.00, 0.00, 0.000, 0.000, 0.000, 10:07:54.622
46, 15.77, -3.95, 0.00, 0.00, 0.000, 0.000, 0.000, 10:07:54.622
47, 15.20, -2.58, 0.00, 0.00, 0.000, 0.000, 0.000, 10:07:54.622
48, 9.35, 1.03, 0.00, 0.00, 0.000, 0.000, 0.000, 10:07:54.622
49, 12.92, -0.13, 0.00, 0.00, 0.000, 0.000, 0.000, 10:07:54.637
50, 15.66, 0.61, 0.00, 0.00, 0.000, 0.000, 0.000, 10:07:54.637
51, 14.12, -1.76, 0.00, 0.00, 0.000, 0.000, 0.000, 10:07:54.652
52, 7.83, -1.33, 0.00, 0.00, 0.000, 0.000, 0.000, 10:07:54.652
53, 13.77, 3.65, 0.00, 0.00, 0.000, 0.000, 0.000, 10:07:54.652
54, 15.41, -4.29, 0.00, 0.00, 0.000, 0.000, 0.000, 10:07:54.653
55, 11.41, -2.21, 0.00, 0.00, 0.000, 0.000, 0.000, 10:07:54.668
56, 8.11, 5.18, 0.00, 0.00, 0.000, 0.000, 0.000, 10:07:54.668
57, 11.85, 2.39, 0.00, 0.00, 0.000, 0.000, 0.000, 10:07:54.684
58, 17.74, -2.25, 0.00, 0.00, 0.000, 0.000, 0.000, 10:07:54.684
59, 12.38, -1.53, 0.00, 0.00, 0.000, 0.000, 0.000, 10:07:54.685
60, 9.22, -3.32, 0.00, 0.00, 0.000, 0.000, 0.000, 10:07:54.685
61, 15.09, 0.20, 0.00, 0.00, 0.000, 0.000, 0.000, 10:07:54.697
62, 16.43, 2.32, 0.00, 0.00, 0.000, 0.000, 0.000, 10:07:54.697
63, 16.37, -2.40, 0.00, 0.00, 0.000, 0.000, 0.000, 10:07:54.712
64, 12.60, 0.79, 0.00, 0.00, 0.000, 0.000, 0.000, 10:07:54.712
65, 12.87, 3.95, 0.00, 0.00, 0.000, 0.000, 0.000, 10:07:54.719
66, 18.37, -3.62, 0.00, 0.00, 0.000, 0.000, 0.000, 10:07:54.720
67, 13.10, 0.16, 0.00, 0.00, 0.000, 0.000, 0.000, 10:07:54.727
68, 12.53, 5.54, 0.00, 0.00, 0.000, 0.000, 0.000, 10:07:54.727
69, 15.21, 5.29, 0.00, 0.00, 0.000, 0.000, 0.000, 10:07:54.742
70, 17.55, -3.26, 0.00, 0.00, 0.000, 0.000, 0.000, 10:07:54.742
71, 13.66, 4.47, 0.00, 0.00, 0.000, 0.000, 0.000, 10:07:54.743
72, 9.34, 3.05, 0.00, 0.00, 0.000, 0.000, 0.000, 10:07:54.743
73, 9.93, 3.33, 0.00, 0.00, 0.000, 0.000, 0.000, 10:07:54.757
74, 16.89, -2.12, 0.00, 0.00, 0.000, 0.000, 0.000, 10:07:54.757
75, 16.63, -2.66, 0.00, 0.00, 0.000, 0.000, 0.000, 10:07:54.772
76, 12.56, 2.46, 0.00, 0.00, 0.000, 0.000, 0.000, 10:07:54.772
77, 11.84, 9.07, 0.00, 0.00, 0.000, 0.000, 0.000, 10:07:54.772
78, 18.19, 0.93, 0.00, 0.00, 0.000, 0.000, 0.000, 10:07:54.772
79, 11.34, 0.85, 0.00, 0.00, 0.000, 0.000, 0.000, 10:07:54.787
80, 10.44, 6.43, 0.00, 0.00, 0.000, 0.000, 0.000, 10:07:54.787
81, 12.43, 7.21, 0.00, 0.00, 0.000, 0.000, 0.000, 10:07:54.803
82, 16.85, -1.05, 0.00, 0.00, 0.000, 0.000, 0.000, 10:07:54.803
83, 13.54, 2.36, 0.00, 0.00, 0.000, 0.000, 0.000, 10:07:54.803
84, 10.08, 3.43, 0.00, 0.00, 0.000, 0.000, 0.000, 10:07:54.803
85, 13.77, 8.71, 0.00, 0.00, 0.000, 0.000, 0.000, 10:07:54.817
86, 15.69, 4.61, 0.00, 0.00, 0.000, 0.000, 0.000, 10:07:54.817
87, 12.83, -5.19, 0.00, 0.00, 0.000, 0.000, 0.000, 10:07:54.832
88, 10.80, 0.67, 0.00, 0.00, 0.000, 0.000, 0.000, 10:07:54.832
89, 10.35, 6.03, 0.00, 0.00, 0.000, 0.000, 0.000, 10:07:54.833
90, 14.19, 1.91, 0.00, 0.00, 0.000, 0.000, 0.000, 10:07:54.833
91, 12.51, -1.27, 0.00, 0.00, 0.000, 0.000, 0.000, 10:07:54.862
92, 8.41, 6.07, 0.00, 0.00, 0.000, 0.000, 0.000, 10:07:54.862
93, 12.89, 4.51, 0.00, 0.00, 0.000, 0.000, 0.000, 10:07:54.863
94, 16.38, -4.66, 0.00, 0.00, 0.000, 0.000, 0.000, 10:07:54.863
95, 15.36, 1.68, 0.00, 0.00, 0.000, 0.000, 0.000, 10:07:54.863
96, 9.25, -1.49, 0.00, 0.00, 0.000, 0.000, 0.000, 10:07:54.863
97, 13.91, 4.30, 0.00, 0.00, 0.000, 0.000, 0.000, 10:07:54.878
98, 15.39, 0.04, 0.00, 0.00, 0.000, 0.000, 0.000, 10:07:54.878
99, 14.57, -3.99, 0.00, 0.00, 0.000, 0.000, 0.000, 10:07:54.893
100, 10.17, -1.56, 0.00, 0.00, 0.000, 0.000, 0.000, 10:07:54.893
101, 10.99, 1.85, 0.00, 0.00, 0.000, 0.000, 0.000, 10:07:54.893
102, 14.17, -3.13, 0.00, 0.00, 0.000, 0.000, 0.000, 10:07:54.893
103, 10.20, -0.89, 0.00, 0.00, 0.000, 0.000, 0.000, 10:07:54.907
104, 5.95, 2.62, 0.00, 0.00, 0.000, 0.000, 0.000, 10:07:54.907
105, 11.29, 1.88, 0.00, 0.00, 0.000, 0.000, 0.000, 10:07:54.922
106, 15.17, -3.72, 0.00, 0.00, 0.000, 0.000, 0.000, 10:07:54.922
107, 11.44, -4.35, 0.00, 0.00, 0.000, 0.000, 0.000, 10:07:54.922
108, 8.70, -3.61, 0.00, 0.00, 0.000, 0.000, 0.000, 10:07:54.922
109, 14.45, 0.46, 0.00, 0.00, 0.000, 0.000, 0.000, 10:07:54.937
110, 15.10, -0.33, 0.00, 0.00, 0.000, 0.000, 0.000, 10:07:54.937
111, 12.08, -0.81, 0.00, 0.00, 0.000, 0.000, 0.000, 10:07:54.952
112, 6.33, -0.94, 0.00, 0.00, 0.000, 0.000, 0.000, 10:07:54.952
113, 13.14, 5.17, 0.00, 0.00, 0.000, 0.000, 0.000, 10:07:54.953
114, 13.55, -2.83, 0.00, 0.00, 0.000, 0.000, 0.000, 10:07:54.953
115, 14.52, -0.41, 0.00, 0.00, 0.000, 0.000, 0.000, 10:07:54.968
116, 8.52, -1.19, 0.00, 0.00, 0.000, 0.000, 0.000, 10:07:54.968
117, 12.70, -1.11, 0.00, 0.00, 0.000, 0.000, 0.000, 10:07:54.982
118, 16.81, -1.37, 0.00, 0.00, 0.000, 0.000, 0.000, 10:07:54.982
119, 10.51, -3.34, 0.00, 0.00, 0.000, 0.000, 0.000, 10:07:54.982
120, 9.89, -1.75, 0.00, 0.00, 0.000, 0.000, 0.000, 10:07:54.982
121, 10.65, -0.99, 0.00, 0.00, 0.000, 0.000, 0.000, 10:07:54.997
122, 15.85, -0.01, 0.00, 0.00, 0.000, 0.000, 0.000, 10:07:54.997
123, 9.70, -4.04, 0.00, 0.00, 0.000, 0.000, 0.000, 10:07:55.012
124, 4.12, -2.47, 0.00, 0.00, 0.000, 0.000, 0.000, 10:07:55.012
125, 10.96, 2.46, 0.00, 0.00, 0.000, 0.000, 0.000, 10:07:55.012
126, 15.67, -2.55, 0.00, 0.00, 0.000, 0.000, 0.000, 10:07:55.012
127, 13.06, 0.87, 0.00, 0.00, 0.000, 0.000, 0.000, 10:07:55.027
128, 9.18, -1.46, 0.00, 0.00, 0.000, 0.000, 0.000, 10:07:55.027
129, 13.94, -3.63, 0.00, 0.00, 0.000, 0.000, 0.000, 10:07:55.042
130, 15.31, -5.16, 0.00, 0.00, 0.000, 0.000, 0.000, 10:07:55.042
131, 10.19, -3.46, 0.00, 0.00, 0.000, 0.000, 0.000, 10:07:55.042
132, 7.78, -3.92, 0.00, 0.00, 0.000, 0.000, 0.000, 10:07:55.042
133, 10.10, 0.72, 0.00, 0.00, 0.000, 0.000, 0.000, 10:07:55.057
134, 16.18, -0.57, 0.00, 0.00, 0.000, 0.000, 0.000, 10:07:55.057
135, 11.11, 1.44, 0.00, 0.00, 0.000, 0.000, 0.000, 10:07:55.072
136, 9.60, -0.14, 0.00, 0.00, 0.000, 0.000, 0.000, 10:07:55.072
137, 13.38, 1.17, 0.00, 0.00, 0.000, 0.000, 0.000, 10:07:55.072
138, 16.75, -2.83, 0.00, 0.00, 0.000, 0.000, 0.000, 10:07:55.072
139, 13.83, 0.98, 0.00, 0.00, 0.000, 0.000, 0.000, 10:07:55.087
140, 9.09, 2.48, 0.00, 0.00, 0.000, 0.000, 0.000, 10:07:55.088
141, 11.04, -1.62, 0.00, 0.00, 0.000, 0.000, 0.000, 10:07:55.102
142, 18.70, -3.23, 0.00, 0.00, 0.000, 0.000, 0.000, 10:07:55.102
143, 13.79, 1.87, 0.00, 0.00, 0.000, 0.000, 0.000, 10:07:55.103
144, 9.17, -0.47, 0.00, 0.00, 0.000, 0.000, 0.000, 10:07:55.103
145, 15.34, -0.95, 0.00, 0.00, 0.000, 0.000, 0.000, 10:07:55.118
146, 16.31, -1.22, 0.00, 0.00, 0.000, 0.000, 0.000, 10:07:55.118
147, 12.43, -3.32, 0.00, 0.00, 0.000, 0.000, 0.000, 10:07:55.132
148, 11.76, -0.85, 0.00, 0.00, 0.000, 0.000, 0.000, 10:07:55.133
149, 14.25, 4.04, 0.00, 0.00, 0.000, 0.000, 0.000, 10:07:55.133
150, 17.69, -0.62, 0.00, 0.00, 0.000, 0.000, 0.000, 10:07:55.133
151, 13.94, -2.33, 0.00, 0.00, 0.000, 0.000, 0.000, 10:07:55.147
152, 12.60, 4.29, 0.00, 0.00, 0.000, 0.000, 0.000, 10:07:55.148
153, 15.27, 0.10, 0.00, 0.00, 0.000, 0.000, 0.000, 10:07:55.162
154, 19.16, -2.65, 0.00, 0.00, 0.000, 0.000, 0.000, 10:07:55.162
155, 15.47, 0.50, 0.00, 0.00, 0.000, 0.000, 0.000, 10:07:55.162
156, 9.97, 2.10, 0.00, 0.00, 0.000, 0.000, 0.000, 10:07:55.162
157, 17.49, 3.82, 0.00, 0.00, 0.000, 0.000, 0.000, 10:07:55.177
158, 19.11, 2.83, 0.00, 0.00, 0.000, 0.000, 0.000, 10:07:55.177
159, 15.45, 0.30, 0.00, 0.00, 0.000, 0.000, 0.000, 10:07:55.192
160, 11.98, 3.93, 0.00, 0.00, 0.000, 0.000, 0.000, 10:07:55.192
161, 14.39, 10.15, 0.00, 0.00, 0.000, 0.000, 0.000, 10:07:55.192
162, 17.11, 0.16, 0.00, 0.00, 0.000, 0.000, 0.000, 10:07:55.192
163, 13.67, -2.27, 0.00, 0.00, 0.000, 0.000, 0.000, 10:07:55.207
164, 11.13, 10.33, 0.00, 0.00, 0.000, 0.000, 0.000, 10:07:55.207
165, 13.71, 8.03, 0.00, 0.00, 0.000, 0.000, 0.000, 10:07:55.222
166, 17.47, 0.26, 0.00, 0.00, 0.000, 0.000, 0.000, 10:07:55.222
167, 13.90, 2.86, 0.00, 0.00, 0.000, 0.000, 0.000, 10:07:55.222
168, 10.76, 7.86, 0.00, 0.00, 0.000, 0.000, 0.000, 10:07:55.222
169, 15.62, 8.84, 0.00, 0.00, 0.000, 0.000, 0.000, 10:07:55.237
170, 19.31, 2.00, 0.00, 0.00, 0.000, 0.000, 0.000, 10:07:55.238
171, 11.40, -2.24, 0.00, 0.00, 0.000, 0.000, 0.000, 10:07:55.252
172, 9.05, 1.84, 0.00, 0.00, 0.000, 0.000, 0.000, 10:07:55.252
173, 12.17, 5.84, 0.00, 0.00, 0.000, 0.000, 0.000, 10:07:55.252
174, 20.40, 1.48, 0.00, 0.00, 0.000, 0.000, 0.000, 10:07:55.252
175, 15.42, -4.11, 0.00, 0.00, 0.000, 0.000, 0.000, 10:07:55.266
176, 9.65, 7.75, 0.00, 0.00, 0.000, 0.000, 0.000, 10:07:55.268
177, 10.77, 8.32, 0.00, 0.00, 0.000, 0.000, 0.000, 10:07:55.283
178, 14.49, 2.33, 0.00, 0.00, 0.000, 0.000, 0.000, 10:07:55.283
179, 11.33, 1.89, 0.00, 0.00, 0.000, 0.000, 0.000, 10:07:55.283
180, 8.69, -1.31, 0.00, 0.00, 0.000, 0.000, 0.000, 10:07:55.283
181, 11.14, 0.66, 0.00, 0.00, 0.000, 0.000, 0.000, 10:07:55.298
182, 17.09, 1.80, 0.00, 0.00, 0.000, 0.000, 0.000, 10:07:55.298
183, 12.55, -0.46, 0.00, 0.00, 0.000, 0.000, 0.000, 10:07:55.313
184, 10.57, 2.96, 0.00, 0.00, 0.000, 0.000, 0.000, 10:07:55.313
185, 12.78, 8.30, 0.00, 0.00, 0.000, 0.000, 0.000, 10:07:55.314
186, 14.42, -1.42, 0.00, 0.00, 0.000, 0.000, 0.000, 10:07:55.314
187, 8.96, 0.14, 0.00, 0.00, 0.000, 0.000, 0.000, 10:07:55.327
188, 5.06, 2.24, 0.00, 0.00, 0.000, 0.000, 0.000, 10:07:55.327
189, 11.25, -2.82, 0.00, 0.00, 0.000, 0.000, 0.000, 10:07:55.342
190, 12.77, -4.56, 0.00, 0.00, 0.000, 0.000, 0.000, 10:07:55.342
191, 12.17, -4.45, 0.00, 0.00, 0.000, 0.000, 0.000, 10:07:55.343
192, 7.88, 0.18, 0.00, 0.00, 0.000, 0.000, 0.000, 10:07:55.344
193, 11.57, -3.58, 0.00, 0.00, 0.000, 0.000, 0.000, 10:07:55.357
194, 12.14, -3.74, 0.00, 0.00, 0.000, 0.000, 0.000, 10:07:55.357
195, 12.56, -4.64, 0.00, 0.00, 0.000, 0.000, 0.000, 10:07:55.372
196, 6.98, -3.88, 0.00, 0.00, 0.000, 0.000, 0.000, 10:07:55.372
197, 9.70, 0.10, 0.00, 0.00, 0.000, 0.000, 0.000, 10:07:55.373
198, 15.26, -1.48, 0.00, 0.00, 0.000, 0.000, 0.000, 10:07:55.373
199, 9.99, -1.73, 0.00, 0.00, 0.000, 0.000, 0.000, 10:07:55.386
200, 6.29, -0.33, 0.00, 0.00, 0.000, 0.000, 0.000, 10:07:55.387
0, 10.82, -1.20, 0.00, 0.00, 0.000, 0.000, 0.000, 10:07:55.387
1, 13.63, -4.87, 0.00, 0.00, 0.000, 0.000, 0.000, 10:07:55.402
2, 11.96, 0.91, 0.00, 0.00, 0.000, 0.000, 0.000, 10:07:55.402
3, 11.68, -2.58, 0.00, 0.00, 0.000, 0.000, 0.000, 10:07:55.417
4, 14.75, -1.57, 0.00, 0.00, 0.000, 0.000, 0.000, 10:07:55.417
5, 16.84, -3.44, 0.00, 0.00, 0.000, 0.000, 0.000, 10:07:55.417
6, 12.22, -6.54, 0.00, 0.00, 0.000, 0.000, 0.000, 10:07:55.417
7, 9.28, -4.86, 0.00, 0.00, 0.000, 0.000, 0.000, 10:07:55.432
8, 10.75, 9.30, 0.00, 0.00, 0.000, 0.000, 0.000, 10:07:55.432
9, 15.42, -1.62, 0.00, 0.00, 0.000, 0.000, 0.000, 10:07:55.447
10, 13.72, -6.83, 0.00, 0.00, 0.000, 0.000, 0.000, 10:07:55.447
11, 8.34, 1.71, 0.00, 0.00, 0.000, 0.000, 0.000, 10:07:55.448
12, 12.40, 7.69, 0.00, 0.00, 0.000, 0.000, 0.000, 10:07:55.448
13, 16.30, -0.37, 0.00, 0.00, 0.000, 0.000, 0.000, 10:07:55.462
14, 11.11, -3.95, 0.00, 0.00, 0.000, 0.000, 0.000, 10:07:55.462
15, 9.98, -1.91, 0.00, 0.00, 0.000, 0.000, 0.000, 10:07:55.477
16, 14.31, 1.47, 0.00, 0.00, 0.000, 0.000, 0.000, 10:07:55.477
17, 17.20, -0.01, 0.00, 0.00, 0.000, 0.000, 0.000, 10:07:55.477
18, 12.79, -1.59, 0.00, 0.00, 0.000, 0.000, 0.000, 10:07:55.477
19, 10.42, 1.19, 0.00, 0.00, 0.000, 0.000, 0.000, 10:07:55.493
20, 11.76, 2.97, 0.00, 0.00, 0.000, 0.000, 0.000, 10:07:55.493
21, 18.28, -3.75, 0.00, 0.00, 0.000, 0.000, 0.000, 10:07:55.507
22, 10.61, -2.60, 0.00, 0.00, 0.000, 0.000, 0.000, 10:07:55.507
23, 10.14, 3.93, 0.00, 0.00, 0.000, 0.000, 0.000, 10:07:55.508
24, 15.82, 1.56, 0.00, 0.00, 0.000, 0.000, 0.000, 10:07:55.508
25, 16.82, -4.56, 0.00, 0.00, 0.000, 0.000, 0.000, 10:07:55.522
26, 13.53, -3.22, 0.00, 0.00, 0.000, 0.000, 0.000, 10:07:55.522
27, 11.30, 1.68, 0.00, 0.00, 0.000, 0.000, 0.000, 10:07:55.537
28, 13.04, 4.32, 0.00, 0.00, 0.000, 0.000, 0.000, 10:07:55.537
29, 17.19, -0.71, 0.00, 0.00, 0.000, 0.000, 0.000, 10:07:55.538
30, 16.46, -0.24, 0.00, 0.00, 0.000, 0.000, 0.000, 10:07:55.538
31, 8.15, 4.05, 0.00, 0.00, 0.000, 0.000, 0.000, 10:07:55.552
32, 16.52, 11.59, 0.00, 0.00, 0.000, 0.000, 0.000, 10:07:55.552
33, 17.17, -2.10, 0.00, 0.00, 0.000, 0.000, 0.000, 10:07:55.568
34, 13.10, -1.22, 0.00, 0.00, 0.000, 0.000, 0.000, 10:07:55.568
35, 12.39, -0.72, 0.00, 0.00, 0.000, 0.000, 0.000, 10:07:55.568
36, 10.89, 4.41, 0.00, 0.00, 0.000, 0.000, 0.000, 10:07:55.568
37, 19.09, -3.45, 0.00, 0.00, 0.000, 0.000, 0.000, 10:07:55.589
38, 13.17, 1.88, 0.00, 0.00, 0.000, 0.000, 0.000, 10:07:55.589
39, 10.20, 1.11, 0.00, 0.00, 0.000, 0.000, 0.000, 10:07:55.597
40, 13.24, 7.43, 0.00, 0.00, 0.000, 0.000, 0.000, 10:07:55.597
41, 19.93, -2.63, 0.00, 0.00, 0.000, 0.000, 0.000, 10:07:55.597
42, 13.63, -4.25, 0.00, 0.00, 0.000, 0.000, 0.000, 10:07:55.597
43, 9.73, -0.83, 0.00, 0.00, 0.000, 0.000, 0.000, 10:07:55.612
44, 14.09, 5.21, 0.00, 0.00, 0.000, 0.000, 0.000, 10:07:55.612
45, 18.60, -1.84, 0.00, 0.00, 0.000, 0.000, 0.000, 10:07:55.627
46, 11.69, 1.87, 0.00, 0.00, 0.000, 0.000, 0.000, 10:07:55.627
47, 8.39, 4.83, 0.00, 0.00, 0.000, 0.000, 0.000, 10:07:55.628
48, 14.60, 2.78, 0.00, 0.00, 0.000, 0.000, 0.000, 10:07:55.628
49, 17.56, 1.52, 0.00, 0.00, 0.000, 0.000, 0.000, 10:07:55.642
50, 12.13, 1.76, 0.00, 0.00, 0.000, 0.000, 0.000, 10:07:55.642
51, 7.11, 1.75, 0.00, 0.00, 0.000, 0.000, 0.000, 10:07:55.658
52, 11.63, 2.52, 0.00, 0.00, 0.000, 0.000, 0.000, 10:07:55.658
53, 15.87, 1.83, 0.00, 0.00, 0.000, 0.000, 0.000, 10:07:55.658
54, 13.56, -0.31, 0.00, 0.00, 0.000, 0.000, 0.000, 10:07:55.658
55, 6.95, -3.01, 0.00, 0.00, 0.000, 0.000, 0.000, 10:07:55.673
56, 13.72, 3.15, 0.00, 0.00, 0.000, 0.000, 0.000, 10:07:55.673
57, 13.89, -3.58, 0.00, 0.00, 0.000, 0.000, 0.000, 10:07:55.687
58, 14.41, -2.32, 0.00, 0.00, 0.000, 0.000, 0.000, 10:07:55.687
59, 10.25, 4.66, 0.00, 0.00, 0.000, 0.000, 0.000, 10:07:55.687
60, 12.52, 1.81, 0.00, 0.00, 0.000, 0.000, 0.000, 10:07:55.688
61, 13.38, -1.33, 0.00, 0.00, 0.000, 0.000, 0.000, 10:07:55.702
62, 13.53, -0.56, 0.00, 0.00, 0.000, 0.000, 0.000, 10:07:55.702
63, 10.50, 0.45, 0.00, 0.00, 0.000, 0.000, 0.000, 10:07:55.717
64, 12.44, 3.44, 0.00, 0.00, 0.000, 0.000, 0.000, 10:07:55.717
65, 17.79, -0.41, 0.00, 0.00, 0.000, 0.000, 0.000, 10:07:55.717
66, 13.65, -4.47, 0.00, 0.00, 0.000, 0.000, 0.000, 10:07:55.717
67, 9.39, -1.57, 0.00, 0.00, 0.000, 0.000, 0.000, 10:07:55.733
68, 15.55, 3.65, 0.00, 0.00, 0.000, 0.000, 0.000, 10:07:55.733
69, 15.65, -2.99, 0.00, 0.00, 0.000, 0.000, 0.000, 10:07:55.747
70, 17.57, -3.16, 0.00, 0.00, 0.000, 0.000, 0.000, 10:07:55.747
71, 8.16, 3.83, 0.00, 0.00, 0.000, 0.000, 0.000, 10:07:55.747
72, 12.62, -1.69, 0.00, 0.00, 0.000, 0.000, 0.000, 10:07:55.748
73, 13.40, -3.24, 0.00, 0.00, 0.000, 0.000, 0.000, 10:07:55.762
74, 8.61, -1.86, 0.00, 0.00, 0.000, 0.000, 0.000, 10:07:55.762
75, 8.58, -1.65, 0.00, 0.00, 0.000, 0.000, 0.000, 10:07:55.777
76, 12.86, 0.33, 0.00, 0.00, 0.000, 0.000, 0.000, 10:07:55.777
77, 14.08, 1.61, 0.00, 0.00, 0.000, 0.000, 0.000, 10:07:55.777
78, 12.45, -2.93, 0.00, 0.00, 0.000, 0.000, 0.000, 10:07:55.778
79, 4.97, -0.88, 0.00, 0.00, 0.000, 0.000, 0.000, 10:07:55.792
80, 13.02, 4.42, 0.00, 0.00, 0.000, 0.000, 0.000, 10:07:55.792
81, 17.46, -1.07, 0.00, 0.00, 0.000, 0.000, 0.000, 10:07:55.807
82, 12.64, -3.06, 0.00, 0.00, 0.000, 0.000, 0.000, 10:07:55.808
83, 6.69, -1.42, 0.00, 0.00, 0.000, 0.000, 0.000, 10:07:55.808
84, 13.71, 0.85, 0.00, 0.00, 0.000, 0.000, 0.000, 10:07:55.808
85, 15.87, -6.78, 0.00, 0.00, 0.000, 0.000, 0.000, 10:07:55.823
86, 10.07, -3.97, 0.00, 0.00, 0.000, 0.000, 0.000, 10:07:55.823
87, 7.14, -0.77, 0.00, 0.00, 0.000, 0.000, 0.000, 10:07:55.837
88, 12.82, 2.48, 0.00, 0.00, 0.000, 0.000, 0.000, 10:07:55.837
89, 14.64, -2.39, 0.00, 0.00, 0.000, 0.000, 0.000, 10:07:55.838
90, 11.59, -4.89, 0.00, 0.00, 0.000, 0.000, 0.000, 10:07:55.838
91, 9.43, -2.38, 0.00, 0.00, 0.000, 0.000, 0.000, 10:07:55.852
92, 14.53, 3.14, 0.00, 0.00, 0.000, 0.000, 0.000, 10:07:55.852
93, 16.54, -6.64, 0.00, 0.00, 0.000, 0.000, 0.000, 10:07:55.867
94, 12.10, -4.10, 0.00, 0.00, 0.000, 0.000, 0.000, 10:07:55.867
95, 8.72, 3.58, 0.00, 0.00, 0.000, 0.000, 0.000, 10:07:55.867
96, 11.62, 2.31, 0.00, 0.00, 0.000, 0.000, 0.000, 10:07:55.867
97, 15.83, -2.30, 0.00, 0.00, 0.000, 0.000, 0.000, 10:07:55.882
98, 15.91, 1.21, 0.00, 0.00, 0.000, 0.000, 0.000, 10:07:55.883
99, 9.42, -0.80, 0.00, 0.00, 0.000, 0.000, 0.000, 10:07:55.897
100, 13.45, 5.50, 0.00, 0.00, 0.000, 0.000, 0.000, 10:07:55.897
101, 15.60, 2.94, 0.00, 0.00, 0.000, 0.000, 0.000, 10:07:55.898
102, 15.58, -1.59, 0.00, 0.00, 0.000, 0.000, 0.000, 10:07:55.898
103, 10.81, 1.33, 0.00, 0.00, 0.000, 0.000, 0.000, 10:07:55.912
104, 10.71, 7.00, 0.00, 0.00, 0.000, 0.000, 0.000, 10:07:55.912
105, 12.98, -2.95, 0.00, 0.00, 0.000, 0.000, 0.000, 10:07:55.927
106, 14.17, -2.36, 0.00, 0.00, 0.000, 0.000, 0.000, 10:07:55.927
107, 7.52, 2.75, 0.00, 0.00, 0.000, 0.000, 0.000, 10:07:55.927
108, 15.22, 3.03, 0.00, 0.00, 0.000, 0.000, 0.000, 10:07:55.928
109, 17.73, -5.01, 0.00, 0.00, 0.000, 0.000, 0.000, 10:07:55.942
110, 12.80, 1.83, 0.00, 0.00, 0.000, 0.000, 0.000, 10:07:55.942
111, 10.47, 3.52, 0.00, 0.00, 0.000, 0.000, 0.000, 10:07:55.957
112, 11.91, 8.07, 0.00, 0.00, 0.000, 0.000, 0.000, 10:07:55.957
113, 16.78, 2.51, 0.00, 0.00, 0.000, 0.000, 0.000, 10:07:55.958
114, 11.48, -0.44, 0.00, 0.00, 0.000, 0.000, 0.000, 10:07:55.958
115, 9.58, 0.43, 0.00, 0.00, 0.000, 0.000, 0.000, 10:07:55.981
116, 15.16, 10.05, 0.00, 0.00, 0.000, 0.000, 0.000, 10:07:55.981
117, 12.98, 7.28, 0.00, 0.00, 0.000, 0.000, 0.000, 10:07:55.987
118, 11.48, -0.47, 0.00, 0.00, 0.000, 0.000, 0.000, 10:07:55.987
119, 13.37, 3.68, 0.00, 0.00, 0.000, 0.000, 0.000, 10:07:55.987
120, 15.30, 6.43, 0.00, 0.00, 0.000, 0.000, 0.000, 10:07:55.987
121, 18.02, -0.65, 0.00, 0.00, 0.000, 0.000, 0.000, 10:07:56.002
122, 15.42, 1.58, 0.00, 0.00, 0.000, 0.000, 0.000, 10:07:56.003
123, 11.72, 0.03, 0.00, 0.00, 0.000, 0.000, 0.000, 10:07:56.017
124, 15.17, -0.46, 0.00, 0.00, 0.000, 0.000, 0.000, 10:07:56.017
125, 18.37, 2.99, 0.00, 0.00, 0.000, 0.000, 0.000, 10:07:56.018
126, 15.01, -0.70, 0.00, 0.00, 0.000, 0.000, 0.000, 10:07:56.018
127, 10.68, 2.54, 0.00, 0.00, 0.000, 0.000, 0.000, 10:07:56.032
128, 15.57, 6.13, 0.00, 0.00, 0.000, 0.000, 0.000, 10:07:56.032
129, 20.84, 1.78, 0.00, 0.00, 0.000, 0.000, 0.000, 10:07:56.047
130, 14.49, -2.00, 0.00, 0.00, 0.000, 0.000, 0.000, 10:07:56.047
131, 9.73, 5.45, 0.00, 0.00, 0.000, 0.000, 0.000, 10:07:56.047
132, 14.27, 5.67, 0.00, 0.00, 0.000, 0.000, 0.000, 10:07:56.047
133, 14.45, -4.36, 0.00, 0.00, 0.000, 0.000, 0.000, 10:07:56.062
134, 12.67, 1.96, 0.00, 0.00, 0.000, 0.000, 0.000, 10:07:56.062
135, 14.28, -1.19, 0.00, 0.00, 0.000, 0.000, 0.000, 10:07:56.078
136, 13.82, 0.09, 0.00, 0.00, 0.000, 0.000, 0.000, 10:07:56.078
137, 17.28, 0.28, 0.00, 0.00, 0.000, 0.000, 0.000, 10:07:56.078
138, 13.58, -3.60, 0.00, 0.00, 0.000, 0.000, 0.000, 10:07:56.078
139, 7.13, 6.14, 0.00, 0.00, 0.000, 0.000, 0.000, 10:07:56.093
140, 8.25, 16.12, 0.00, 0.00, 0.000, 0.000, 0.000, 10:07:56.093
141, 16.41, 0.67, 0.00, 0.00, 0.000, 0.000, 0.000, 10:07:56.106
142, 8.17, -7.28, 0.00, 0.00, 0.000, 0.000, 0.000, 10:07:56.107
143, 7.23, 1.13, 0.00, 0.00, 0.000, 0.000, 0.000, 10:07:56.107
144, 13.62, 2.31, 0.00, 0.00, 0.000, 0.000, 0.000, 10:07:56.107
145, 15.32, -0.36, 0.00, 0.00, 0.000, 0.000, 0.000, 10:07:56.122
146, 8.43, -2.69, 0.00, 0.00, 0.000, 0.000, 0.000, 10:07:56.122
147, 11.72, -0.92, 0.00, 0.00, 0.000, 0.000, 0.000, 10:07:56.136
148, 14.31, -1.55, 0.00, 0.00, 0.000, 0.000, 0.000, 10:07:56.137
149, 15.86, -3.81, 0.00, 0.00, 0.000, 0.000, 0.000, 10:07:56.137
150, 12.12, -2.47, 0.00, 0.00, 0.000, 0.000, 0.000, 10:07:56.137
151, 7.95, 1.40, 0.00, 0.00, 0.000, 0.000, 0.000, 10:07:56.152
152, 10.43, 0.30, 0.00, 0.00, 0.000, 0.000, 0.000, 10:07:56.152
153, 15.09, -1.25, 0.00, 0.00, 0.000, 0.000, 0.000, 10:07:56.167
154, 10.82, -1.94, 0.00, 0.00, 0.000, 0.000, 0.000, 10:07:56.167
155, 12.49, -0.78, 0.00, 0.00, 0.000, 0.000, 0.000, 10:07:56.167
156, 11.72, -2.85, 0.00, 0.00, 0.000, 0.000, 0.000, 10:07:56.167
157, 15.46, -3.25, 0.00, 0.00, 0.000, 0.000, 0.000, 10:07:56.183
158, 13.27, -2.13, 0.00, 0.00, 0.000, 0.000, 0.000, 10:07:56.183
159, 9.96, 3.46, 0.00, 0.00, 0.000, 0.000, 0.000, 10:07:56.197
160, 14.34, 0.86, 0.00, 0.00, 0.000, 0.000, 0.000, 10:07:56.197
161, 18.79, -0.62, 0.00, 0.00, 0.000, 0.000, 0.000, 10:07:56.197
162, 14.32, -0.22, 0.00, 0.00, 0.000, 0.000, 0.000, 10:07:56.197
163, 10.06, -1.09, 0.00, 0.00, 0.000, 0.000, 0.000, 10:07:56.212
164, 11.45, 4.82, 0.00, 0.00, 0.000, 0.000, 0.000, 10:07:56.212
165, 15.32, -3.15, 0.00, 0.00, 0.000, 0.000, 0.000, 10:07:56.227
166, 11.79, -4.69, 0.00, 0.00, 0.000, 0.000, 0.000, 10:07:56.227
167, 9.08, 0.59, 0.00, 0.00, 0.000, 0.000, 0.000, 10:07:56.227
168, 15.72, 1.42, 0.00, 0.00, 0.000, 0.000, 0.000, 10:07:56.227
169, 16.53, -3.33, 0.00, 0.00, 0.000, 0.000, 0.000, 10:07:56.242
170, 10.46, -0.33, 0.00, 0.00, 0.000, 0.000, 0.000, 10:07:56.242
171, 6.93, -0.88, 0.00, 0.00, 0.000, 0.000, 0.000, 10:07:56.259
172, 11.64, 4.93, 0.00, 0.00, 0.000, 0.000, 0.000, 10:07:56.259
173, 13.31, -0.76, 0.00, 0.00, 0.000, 0.000, 0.000, 10:07:56.259
174, 11.62, -1.47, 0.00, 0.00, 0.000, 0.000, 0.000, 10:07:56.259
175, 7.02, 0.31, 0.00, 0.00, 0.000, 0.000, 0.000, 10:07:56.274
176, 13.15, -0.83, 0.00, 0.00, 0.000, 0.000, 0.000, 10:07:56.274
177, 18.16, -7.11, 0.00, 0.00, 0.000, 0.000, 0.000, 10:07:56.287
178, 11.93, -2.28, 0.00, 0.00, 0.000, 0.000, 0.000, 10:07:56.287
179, 6.97, 3.99, 0.00, 0.00, 0.000, 0.000, 0.000, 10:07:56.288
180, 16.14, 5.02, 0.00, 0.00, 0.000, 0.000, 0.000, 10:07:56.288
181, 14.37, -3.90, 0.00, 0.00, 0.000, 0.000, 0.000, 10:07:56.303
182, 13.21, -2.36, 0.00, 0.00, 0.000, 0.000, 0.000, 10:07:56.303
183, 12.19, -1.06, 0.00, 0.00, 0.000, 0.000, 0.000, 10:07:56.317
184, 14.61, -0.22, 0.00, 0.00, 0.000, 0.000, 0.000, 10:07:56.317
185, 16.43, -3.18, 0.00, 0.00, 0.000, 0.000, 0.000, 10:07:56.317
186, 12.11, -2.40, 0.00, 0.00, 0.000, 0.000, 0.000, 10:07:56.317
187, 11.04, -0.31, 0.00, 0.00, 0.000, 0.000, 0.000, 10:07:56.332
188, 15.49, 2.30, 0.00, 0.00, 0.000, 0.000, 0.000, 10:07:56.332
189, 17.91, -3.72, 0.00, 0.00, 0.000, 0.000, 0.000, 10:07:56.347
190, 14.46, -1.97, 0.00, 0.00, 0.000, 0.000, 0.000, 10:07:56.347
191, 10.28, 2.38, 0.00, 0.00, 0.000, 0.000, 0.000, 10:07:56.347
192, 16.21, 2.02, 0.00, 0.00, 0.000, 0.000, 0.000, 10:07:56.347
193, 20.95, -2.85, 0.00, 0.00, 0.000, 0.000, 0.000, 10:07:56.363
194, 14.52, 1.24, 0.00, 0.00, 0.000, 0.000, 0.000, 10:07:56.363
195, 8.04, 1.00, 0.00, 0.00, 0.000, 0.000, 0.000, 10:07:56.377
196, 13.03, 3.71, 0.00, 0.00, 0.000, 0.000, 0.000, 10:07:56.378
197, 18.29, -6.31, 0.00, 0.00, 0.000, 0.000, 0.000, 10:07:56.378
198, 13.70, 1.17, 0.00, 0.00, 0.000, 0.000, 0.000, 10:07:56.378
199, 11.08, 1.66, 0.00, 0.00, 0.000, 0.000, 0.000, 10:07:56.392
200, 14.91, 8.43, 0.00, 0.00, 0.000, 0.000, 0.000, 10:07:56.392
0, 17.14, 0.82, 0.00, 0.00, 0.000, 0.000, 0.000, 10:07:56.392
1, 13.74, -3.39, 0.00, 0.00, 0.000, 0.000, 0.000, 10:07:56.413
2, 9.00, 7.39, 0.00, 0.00, 0.000, 0.000, 0.000, 10:07:56.415
3, 10.18, 3.03, 0.00, 0.00, 0.000, 0.000, 0.000, 10:07:56.422
4, 13.09, -5.14, 0.00, 0.00, 0.000, 0.000, 0.000, 10:07:56.422
5, 12.26, 0.96, 0.00, 0.00, 0.000, 0.000, 0.000, 10:07:56.422
6, 9.11, -1.19, 0.00, 0.00, 0.000, 0.000, 0.000, 10:07:56.422
7, 15.94, -1.13, 0.00, 0.00, 0.000, 0.000, 0.000, 10:07:56.437
8, 17.21, -2.36, 0.00, 0.00, 0.000, 0.000, 0.000, 10:07:56.437
9, 10.02, -3.53, 0.00, 0.00, 0.000, 0.000, 0.000, 10:07:56.452
10, 9.93, -1.02, 0.00, 0.00, 0.000, 0.000, 0.000, 10:07:56.452
11, 13.70, 3.88, 0.00, 0.00, 0.000, 0.000, 0.000, 10:07:56.452
12, 16.12, -3.79, 0.00, 0.00, 0.000, 0.000, 0.000, 10:07:56.452
13, 11.39, -2.57, 0.00, 0.00, 0.000, 0.000, 0.000, 10:07:56.467
14, 9.20, 2.44, 0.00, 0.00, 0.000, 0.000, 0.000, 10:07:56.467
15, 12.53, 6.53, 0.00, 0.00, 0.000, 0.000, 0.000, 10:07:56.483
16, 16.75, -4.07, 0.00, 0.00, 0.000, 0.000, 0.000, 10:07:56.483
17, 12.75, -1.08, 0.00, 0.00, 0.000, 0.000, 0.000, 10:07:56.483
18, 9.16, 1.59, 0.00, 0.00, 0.000, 0.000, 0.000, 10:07:56.483
19, 13.05, 1.67, 0.00, 0.00, 0.000, 0.000, 0.000, 10:07:56.498
20, 13.14, 1.74, 0.00, 0.00, 0.000, 0.000, 0.000, 10:07:56.498
21, 12.85, -1.59, 0.00, 0.00, 0.000, 0.000, 0.000, 10:07:56.512
22, 8.40, 0.53, 0.00, 0.00, 0.000, 0.000, 0.000, 10:07:56.512
23, 12.64, 4.51, 0.00, 0.00, 0.000, 0.000, 0.000, 10:07:56.512
24, 13.83, -3.91, 0.00, 0.00, 0.000, 0.000, 0.000, 10:07:56.512
25, 8.99, -3.35, 0.00, 0.00, 0.000, 0.000, 0.000, 10:07:56.527
26, 8.51, 1.08, 0.00, 0.00, 0.000, 0.000, 0.000, 10:07:56.527
27, 14.02, -0.57, 0.00, 0.00, 0.000, 0.000, 0.000, 10:07:56.542
28, 16.42, -5.52, 0.00, 0.00, 0.000, 0.000, 0.000, 10:07:56.542
29, 12.29, -2.38, 0.00, 0.00, 0.000, 0.000, 0.000, 10:07:56.543
30, 9.07, -1.97, 0.00, 0.00, 0.000, 0.000, 0.000, 10:07:56.543
31, 12.55, 0.03, 0.00, 0.00, 0.000, 0.000, 0.000, 10:07:56.558
32, 14.19, -2.09, 0.00, 0.00, 0.000, 0.000, 0.000, 10:07:56.558
33, 12.72, 1.16, 0.00, 0.00, 0.000, 0.000, 0.000, 10:07:56.572
34, 11.20, -0.23, 0.00, 0.00, 0.000, 0.000, 0.000, 10:07:56.572
35, 11.14, 5.50, 0.00, 0.00, 0.000, 0.000, 0.000, 10:07:56.573
36, 13.07, -2.09, 0.00, 0.00, 0.000, 0.000, 0.000, 10:07:56.573
37, 8.24, -1.97, 0.00, 0.00, 0.000, 0.000, 0.000, 10:07:56.586
38, 6.43, 1.30, 0.00, 0.00, 0.000, 0.000, 0.000, 10:07:56.587
39, 13.15, -1.52, 0.00, 0.00, 0.000, 0.000, 0.000, 10:07:56.602
40, 16.18, -2.17, 0.00, 0.00, 0.000, 0.000, 0.000, 10:07:56.602
41, 12.35, -1.43, 0.00, 0.00, 0.000, 0.000, 0.000, 10:07:56.602
42, 11.37, -2.66, 0.00, 0.00, 0.000, 0.000, 0.000, 10:07:56.602
43, 14.59, -1.58, 0.00, 0.00, 0.000, 0.000, 0.000, 10:07:56.617
44, 18.99, -4.60, 0.00, 0.00, 0.000, 0.000, 0.000, 10:07:56.617
45, 14.59, -3.05, 0.00, 0.00, 0.000, 0.000, 0.000, 10:07:56.632
46, 10.47, 0.60, 0.00, 0.00, 0.000, 0.000, 0.000, 10:07:56.632
47, 16.20, 3.96, 0.00, 0.00, 0.000, 0.000, 0.000, 10:07:56.633
48, 14.59, -0.30, 0.00, 0.00, 0.000, 0.000, 0.000, 10:07:56.633
49, 9.42, -1.69, 0.00, 0.00, 0.000, 0.000, 0.000, 10:07:56.647
50, 8.24, 5.54, 0.00, 0.00, 0.000, 0.000, 0.000, 10:07:56.648
51, 10.44, 0.33, 0.00, 0.00, 0.000, 0.000, 0.000, 10:07:56.663
52, 17.13, -1.22, 0.00, 0.00, 0.000, 0.000, 0.000, 10:07:56.663
53, 12.01, -0.06, 0.00, 0.00, 0.000, 0.000, 0.000, 10:07:56.663
54, 9.57, -2.16, 0.00, 0.00, 0.000, 0.000, 0.000, 10:07:56.663
55, 15.79, 1.91, 0.00, 0.00, 0.000, 0.000, 0.000, 10:07:56.677
56, 17.63, -0.87, 0.00, 0.00, 0.000, 0.000, 0.000, 10:07:56.677
57, 14.34, -1.94, 0.00, 0.00, 0.000, 0.000, 0.000, 10:07:56.693
58, 11.55, 0.10, 0.00, 0.00, 0.000, 0.000, 0.000, 10:07:56.693
59, 16.45, 3.88, 0.00, 0.00, 0.000, 0.000, 0.000, 10:07:56.693
60, 17.64, -2.36, 0.00, 0.00, 0.000, 0.000, 0.000, 10:07:56.693
61, 11.92, -1.90, 0.00, 0.00, 0.000, 0.000, 0.000, 10:07:56.707
62, 8.93, 3.63, 0.00, 0.00, 0.000, 0.000, 0.000, 10:07:56.707
63, 13.74, 3.08, 0.00, 0.00, 0.000, 0.000, 0.000, 10:07:56.722
64, 16.05, 0.43, 0.00, 0.00, 0.000, 0.000, 0.000, 10:07:56.722
65, 13.22, -1.31, 0.00, 0.00, 0.000, 0.000, 0.000, 10:07:56.722
66, 9.98, 2.01, 0.00, 0.00, 0.000, 0.000, 0.000, 10:07:56.722
67, 12.78, 2.40, 0.00, 0.00, 0.000, 0.000, 0.000, 10:07:56.737
68, 17.74, -2.78, 0.00, 0.00, 0.000, 0.000, 0.000, 10:07:56.738
69, 14.57, -2.63, 0.00, 0.00, 0.000, 0.000, 0.000, 10:07:56.752
70, 12.01, 2.46, 0.00, 0.00, 0.000, 0.000, 0.000, 10:07:56.752
71, 12.66, 3.73, 0.00, 0.00, 0.000, 0.000, 0.000, 10:07:56.752
72, 16.26, -4.63, 0.00, 0.00, 0.000, 0.000, 0.000, 10:07:56.752
73, 15.39, 0.82, 0.00, 0.00, 0.000, 0.000, 0.000, 10:07:56.767
74, 10.28, 7.56, 0.00, 0.00, 0.000, 0.000, 0.000, 10:07:56.767
75, 14.55, 6.30, 0.00, 0.00, 0.000, 0.000, 0.000, 10:07:56.782
76, 19.70, -2.42, 0.00, 0.00, 0.000, 0.000, 0.000, 10:07:56.782
77, 15.75, -1.25, 0.00, 0.00, 0.000, 0.000, 0.000, 10:07:56.782
78, 11.34, 2.37, 0.00, 0.00, 0.000, 0.000, 0.000, 10:07:56.782
79, 14.42, 5.30, 0.00, 0.00, 0.000, 0.000, 0.000, 10:07:56.798
80, 18.13, 0.98, 0.00, 0.00, 0.000, 0.000, 0.000, 10:07:56.798
81, 11.19, -1.84, 0.00, 0.00, 0.000, 0.000, 0.000, 10:07:56.812
82, 8.04, -0.39, 0.00, 0.00, 0.000, 0.000, 0.000, 10:07:56.812
83, 14.30, 6.80, 0.00, 0.00, 0.000, 0.000, 0.000, 10:07:56.812
84, 15.41, -3.72, 0.00, 0.00, 0.000, 0.000, 0.000, 10:07:56.812
85, 12.41, 2.16, 0.00, 0.00, 0.000, 0.000, 0.000, 10:07:56.829
86, 10.09, 6.76, 0.00, 0.00, 0.000, 0.000, 0.000, 10:07:56.829
87, 16.60, 2.32, 0.00, 0.00, 0.000, 0.000, 0.000, 10:07:56.842
88, 19.44, -4.25, 0.00, 0.00, 0.000, 0.000, 0.000, 10:07:56.842
89, 9.11, -1.90, 0.00, 0.00, 0.000, 0.000, 0.000, 10:07:56.842
90, 8.36, -1.02, 0.00, 0.00, 0.000, 0.000, 0.000, 10:07:56.842
91, 13.02, 3.01, 0.00, 0.00, 0.000, 0.000, 0.000, 10:07:56.858
92, 15.43, -0.42, 0.00, 0.00, 0.000, 0.000, 0.000, 10:07:56.858
93, 11.95, 1.63, 0.00, 0.00, 0.000, 0.000, 0.000, 10:07:56.872
94, 9.65, 3.12, 0.00, 0.00, 0.000, 0.000, 0.000, 10:07:56.872
95, 15.95, 1.96, 0.00, 0.00, 0.000, 0.000, 0.000, 10:07:56.872
96, 17.61, -3.86, 0.00, 0.00, 0.000, 0.000, 0.000, 10:07:56.872
97, 12.66, -2.77, 0.00, 0.00, 0.000, 0.000, 0.000, 10:07:56.894
98, 11.44, 0.18, 0.00, 0.00, 0.000, 0.000, 0.000, 10:07:56.894
99, 16.43, 5.93, 0.00, 0.00, 0.000, 0.000, 0.000, 10:07:56.902
100, 15.53, -3.19, 0.00, 0.00, 0.000, 0.000, 0.000, 10:07:56.903
101, 10.73, 1.94, 0.00, 0.00, 0.000, 0.000, 0.000, 10:07:56.903
102, 11.19, 0.21, 0.00, 0.00, 0.000, 0.000, 0.000, 10:07:56.903
103, 12.92, -1.54, 0.00, 0.00, 0.000, 0.000, 0.000, 10:07:56.918
104, 14.34, -4.08, 0.00, 0.00, 0.000, 0.000, 0.000, 10:07:56.918
105, 11.83, -0.54, 0.00, 0.00, 0.000, 0.000, 0.000, 10:07:56.932
106, 10.98, 2.36, 0.00, 0.00, 0.000, 0.000, 0.000, 10:07:56.932
107, 13.42, 4.64, 0.00, 0.00, 0.000, 0.000, 0.000, 10:07:56.933
108, 14.38, -4.04, 0.00, 0.00, 0.000, 0.000, 0.000, 10:07:56.933
109, 10.48, -0.32, 0.00, 0.00, 0.000, 0.000, 0.000, 10:07:56.947
110, 7.15, 1.09, 0.00, 0.00, 0.000, 0.000, 0.000, 10:07:56.947
111, 14.79, -4.22, 0.00, 0.00, 0.000, 0.000, 0.000, 10:07:56.962
112, 15.76, -4.27, 0.00, 0.00, 0.000, 0.000, 0.000, 10:07:56.962
113, 11.49, -1.22, 0.00, 0.00, 0.000, 0.000, 0.000, 10:07:56.962
114, 10.69, 0.08, 0.00, 0.00, 0.000, 0.000, 0.000, 10:07:56.962
115, 14.65, 4.18, 0.00, 0.00, 0.000, 0.000, 0.000, 10:07:56.977
116, 16.40, -0.76, 0.00, 0.00, 0.000, 0.000, 0.000, 10:07:56.977
117, 14.34, -4.81, 0.00, 0.00, 0.000, 0.000, 0.000, 10:07:56.992
118, 11.73, 1.40, 0.00, 0.00, 0.000, 0.000, 0.000, 10:07:56.992
119, 15.16, 2.25, 0.00, 0.00, 0.000, 0.000, 0.000, 10:07:56.993
120, 15.51, -7.21, 0.00, 0.00, 0.000, 0.000, 0.000, 10:07:56.993
121, 14.68, -4.95, 0.00, 0.00, 0.000, 0.000, 0.000, 10:07:57.007
122, 11.35, 0.97, 0.00, 0.00, 0.000, 0.000, 0.000, 10:07:57.007
123, 14.89, -0.07, 0.00, 0.00, 0.000, 0.000, 0.000, 10:07:57.022
124, 16.49, -5.26, 0.00, 0.00, 0.000, 0.000, 0.000, 10:07:57.022
125, 10.76, -2.34, 0.00, 0.00, 0.000, 0.000, 0.000, 10:07:57.022
126, 10.32, -5.47, 0.00, 0.00, 0.000, 0.000, 0.000, 10:07:57.022
127, 14.10, 4.19, 0.00, 0.00, 0.000, 0.000, 0.000, 10:07:57.040
128, 12.35, -0.91, 0.00, 0.00, 0.000, 0.000, 0.000, 10:07:57.040
129, 10.40, -1.82, 0.00, 0.00, 0.000, 0.000, 0.000, 10:07:57.052
130, 9.45, -0.42, 0.00, 0.00, 0.000, 0.000, 0.000, 10:07:57.053
131, 14.58, -2.43, 0.00, 0.00, 0.000, 0.000, 0.000, 10:07:57.053
132, 16.45, -8.35, 0.00, 0.00, 0.000, 0.000, 0.000, 10:07:57.054
133, 13.20, -6.15, 0.00, 0.00, 0.000, 0.000, 0.000, 10:07:57.082
134, 14.59, 3.68, 0.00, 0.00, 0.000, 0.000, 0.000, 10:07:57.083
135, 14.99, 1.82, 0.00, 0.00, 0.000, 0.000, 0.000, 10:07:57.083
136, 15.94, -1.94, 0.00, 0.00, 0.000, 0.000, 0.000, 10:07:57.083
137, 11.01, 0.78, 0.00, 0.00, 0.000, 0.000, 0.000, 10:07:57.083
138, 10.42, -2.42, 0.00, 0.00, 0.000, 0.000, 0.000, 10:07:57.084
139, 15.80, 0.35, 0.00, 0.00, 0.000, 0.000, 0.000, 10:07:57.098
140, 15.68, -1.10, 0.00, 0.00, 0.000, 0.000, 0.000, 10:07:57.098
141, 13.79, -2.98, 0.00, 0.00, 0.000, 0.000, 0.000, 10:07:57.112
142, 9.09, -0.27, 0.00, 0.00, 0.000, 0.000, 0.000, 10:07:57.113
143, 13.73, 4.56, 0.00, 0.00, 0.000, 0.000, 0.000, 10:07:57.113
144, 15.32, -4.62, 0.00, 0.00, 0.000, 0.000, 0.000, 10:07:57.113
145, 10.14, 0.30, 0.00, 0.00, 0.000, 0.000, 0.000, 10:07:57.127
146, 6.76, 4.37, 0.00, 0.00, 0.000, 0.000, 0.000, 10:07:57.128
147, 13.73, 7.82, 0.00, 0.00, 0.000, 0.000, 0.000, 10:07:57.142
148, 18.41, -7.52, 0.00, 0.00, 0.000, 0.000, 0.000, 10:07:57.142
149, 11.78, -2.28, 0.00, 0.00, 0.000, 0.000, 0.000, 10:07:57.143
150, 10.98, 1.16, 0.00, 0.00, 0.000, 0.000, 0.000, 10:07:57.143
151, 17.15, 0.21, 0.00, 0.00, 0.000, 0.000, 0.000, 10:07:57.157
152, 17.10, -1.23, 0.00, 0.00, 0.000, 0.000, 0.000, 10:07:57.157
153, 12.97, -4.76, 0.00, 0.00, 0.000, 0.000, 0.000, 10:07:57.172
154, 14.39, 4.39, 0.00, 0.00, 0.000, 0.000, 0.000, 10:07:57.173
155, 15.28, 5.68, 0.00, 0.00, 0.000, 0.000, 0.000, 10:07:57.180
156, 15.34, -2.12, 0.00, 0.00, 0.000, 0.000, 0.000, 10:07:57.181
157, 13.02, -3.73, 0.00, 0.00, 0.000, 0.000, 0.000, 10:07:57.186
158, 9.12, 4.51, 0.00, 0.00, 0.000, 0.000, 0.000, 10:07:57.187
159, 12.16, 6.63, 0.00, 0.00, 0.000, 0.000, 0.000, 10:07:57.203
160, 17.47, -1.69, 0.00, 0.00, 0.000, 0.000, 0.000, 10:07:57.203
161, 11.35, -0.26, 0.00, 0.00, 0.000, 0.000, 0.000, 10:07:57.203
162, 11.05, 2.28, 0.00, 0.00, 0.000, 0.000, 0.000, 10:07:57.203
163, 13.77, 1.49, 0.00, 0.00, 0.000, 0.000, 0.000, 10:07:57.217
164, 16.00, -4.56, 0.00, 0.00, 0.000, 0.000, 0.000, 10:07:57.217
165, 11.23, -3.76, 0.00, 0.00, 0.000, 0.000, 0.000, 10:07:57.232
166, 9.21, 1.37, 0.00, 0.00, 0.000, 0.000, 0.000, 10:07:57.232
167, 15.54, 2.81, 0.00, 0.00, 0.000, 0.000, 0.000, 10:07:57.232
168, 15.24, -3.66, 0.00, 0.00, 0.000, 0.000, 0.000, 10:07:57.232
169, 12.03, -0.15, 0.00, 0.00, 0.000, 0.000, 0.000, 10:07:57.248
170, 11.43, 6.28, 0.00, 0.00, 0.000, 0.000, 0.000, 10:07:57.248
171, 13.41, 0.77, 0.00, 0.00, 0.000, 0.000, 0.000, 10:07:57.263
172, 14.65, -5.93, 0.00, 0.00, 0.000, 0.000, 0.000, 10:07:57.263
173, 13.02, -1.46, 0.00, 0.00, 0.000, 0.000, 0.000, 10:07:57.263
174, 8.71, 3.21, 0.00, 0.00, 0.000, 0.000, 0.000, 10:07:57.263
175, 12.66, 6.37, 0.00, 0.00, 0.000, 0.000, 0.000, 10:07:57.277
176, 13.27, 0.17, 0.00, 0.00, 0.000, 0.000, 0.000, 10:07:57.277
177, 11.68, -2.24, 0.00, 0.00, 0.000, 0.000, 0.000, 10:07:57.294
178, 9.62, 1.42, 0.00, 0.00, 0.000, 0.000, 0.000, 10:07:57.294
179, 15.20, 5.50, 0.00, 0.00, 0.000, 0.000, 0.000, 10:07:57.295
180, 13.52, -2.82, 0.00, 0.00, 0.000, 0.000, 0.000, 10:07:57.295
181, 12.00, -1.92, 0.00, 0.00, 0.000, 0.000, 0.000, 10:07:57.308
182, 7.36, 4.70, 0.00, 0.00, 0.000, 0.000, 0.000, 10:07:57.309
183, 11.22, 3.66, 0.00, 0.00, 0.000, 0.000, 0.000, 10:07:57.322
184, 18.36, -0.15, 0.00, 0.00, 0.000, 0.000, 0.000, 10:07:57.322
185, 7.01, 1.25, 0.00, 0.00, 0.000, 0.000, 0.000, 10:07:57.322
186, 8.38, -4.79, 0.00, 0.00, 0.000, 0.000, 0.000, 10:07:57.322
187, 14.60, 1.05, 0.00, 0.00, 0.000, 0.000, 0.000, 10:07:57.337
188, 11.82, 0.59, 0.00, 0.00, 0.000, 0.000, 0.000, 10:07:57.337
189, 9.17, -0.59, 0.00, 0.00, 0.000, 0.000, 0.000, 10:07:57.352
190, 6.49, -0.35, 0.00, 0.00, 0.000, 0.000, 0.000, 10:07:57.352
191, 12.36, 3.09, 0.00, 0.00, 0.000, 0.000, 0.000, 10:07:57.352
192, 12.17, -1.94, 0.00, 0.00, 0.000, 0.000, 0.000, 10:07:57.352
193, 11.64, -3.50, 0.00, 0.00, 0.000, 0.000, 0.000, 10:07:57.368
194, 7.21, 3.09, 0.00, 0.00, 0.000, 0.000, 0.000, 10:07:57.368
195, 16.14, -1.42, 0.00, 0.00, 0.000, 0.000, 0.000, 10:07:57.382
196, 15.01, -2.82, 0.00, 0.00, 0.000, 0.000, 0.000, 10:07:57.382
197, 11.15, -0.73, 0.00, 0.00, 0.000, 0.000, 0.000, 10:07:57.383
198, 9.60, -1.50, 0.00, 0.00, 0.000, 0.000, 0.000, 10:07:57.383
199, 12.36, -0.22, 0.00, 0.00, 0.000, 0.000, 0.000, 10:07:57.397
200, 14.24, -2.26, 0.00, 0.00, 0.000, 0.000, 0.000, 10:07:57.397
0, 9.67, -4.09, 0.00, 0.00, 0.000, 0.000, 0.000, 10:07:57.398
1, 11.27, -2.35, 0.00, 0.00, 0.000, 0.000, 0.000, 10:07:57.413
2, 12.94, -0.19, 0.00, 0.00, 0.000, 0.000, 0.000, 10:07:57.413
3, 12.94, -3.82, 0.00, 0.00, 0.000, 0.000, 0.000, 10:07:57.427
4, 11.56, -1.91, 0.00, 0.00, 0.000, 0.000, 0.000, 10:07:57.427
5, 10.02, -0.11, 0.00, 0.00, 0.000, 0.000, 0.000, 10:07:57.427
6, 13.46, 0.11, 0.00, 0.00, 0.000, 0.000, 0.000, 10:07:57.427
7, 17.50, -4.93, 0.00, 0.00, 0.000, 0.000, 0.000, 10:07:57.442
8, 12.58, -2.47, 0.00, 0.00, 0.000, 0.000, 0.000, 10:07:57.442
9, 12.41, 0.38, 0.00, 0.00, 0.000, 0.000, 0.000, 10:07:57.457
10, 14.78, 3.91, 0.00, 0.00, 0.000, 0.000, 0.000, 10:07:57.457
11, 15.54, -0.40, 0.00, 0.00, 0.000, 0.000, 0.000, 10:07:57.457
12, 12.38, -3.94, 0.00, 0.00, 0.000, 0.000, 0.000, 10:07:57.457
13, 11.10, 0.59, 0.00, 0.00, 0.000, 0.000, 0.000, 10:07:57.472
14, 16.69, 3.19, 0.00, 0.00, 0.000, 0.000, 0.000, 10:07:57.472
15, 14.31, -6.11, 0.00, 0.00, 0.000, 0.000, 0.000, 10:07:57.487
16, 12.02, -2.57, 0.00, 0.00, 0.000, 0.000, 0.000, 10:07:57.487
17, 12.38, 4.60, 0.00, 0.00, 0.000, 0.000, 0.000, 10:07:57.487
18, 12.07, 7.38, 0.00, 0.00, 0.000, 0.000, 0.000, 10:07:57.487
19, 16.69, -3.70, 0.00, 0.00, 0.000, 0.000, 0.000, 10:07:57.503
20, 9.75, 2.55, 0.00, 0.00, 0.000, 0.000, 0.000, 10:07:57.503
21, 10.53, 1.98, 0.00, 0.00, 0.000, 0.000, 0.000, 10:07:57.517
22, 15.51, 5.32, 0.00, 0.00, 0.000, 0.000, 0.000, 10:07:57.517
23, 17.10, 0.12, 0.00, 0.00, 0.000, 0.000, 0.000, 10:07:57.517
24, 10.48, -1.07, 0.00, 0.00, 0.000, 0.000, 0.000, 10:07:57.518
25, 11.64, 5.82, 0.00, 0.00, 0.000, 0.000, 0.000, 10:07:57.547
26, 15.77, 5.70, 0.00, 0.00, 0.000, 0.000, 0.000, 10:07:57.547
27, 16.50, -1.05, 0.00, 0.00, 0.000, 0.000, 0.000, 10:07:57.548
28, 13.67, 0.01, 0.00, 0.00, 0.000, 0.000, 0.000, 10:07:57.548
29, 12.41, 5.63, 0.00, 0.00, 0.000, 0.000, 0.000, 10:07:57.548
30, 13.08, 4.11, 0.00, 0.00, 0.000, 0.000, 0.000, 10:07:57.548
31, 16.23, -0.40, 0.00, 0.00, 0.000, 0.000, 0.000, 10:07:57.563
32, 11.27, 4.19, 0.00, 0.00, 0.000, 0.000, 0.000, 10:07:57.563
33, 11.55, 4.24, 0.00, 0.00, 0.000, 0.000, 0.000, 10:07:57.577
34, 14.81, 4.49, 0.00, 0.00, 0.000, 0.000, 0.000, 10:07:57.578
35, 18.66, -1.28, 0.00, 0.00, 0.000, 0.000, 0.000, 10:07:57.578
36, 10.79, -0.77, 0.00, 0.00, 0.000, 0.000, 0.000, 10:07:57.578
37, 9.82, 4.96, 0.00, 0.00, 0.000, 0.000, 0.000, 10:07:57.599
38, 13.65, 7.64, 0.00, 0.00, 0.000, 0.000, 0.000, 10:07:57.599
39, 13.93, -0.26, 0.00, 0.00, 0.000, 0.000, 0.000, 10:07:57.607
40, 12.20, -3.34, 0.00, 0.00, 0.000, 0.000, 0.000, 10:07:57.607
41, 11.90, 5.55, 0.00, 0.00, 0.000, 0.000, 0.000, 10:07:57.607
42, 13.33, 5.22, 0.00, 0.00, 0.000, 0.000, 0.000, 10:07:57.607
43, 18.78, -3.14, 0.00, 0.00, 0.000, 0.000, 0.000, 10:07:57.622
44, 13.84, 4.67, 0.00, 0.00, 0.000, 0.000, 0.000, 10:07:57.622
45, 9.75, 6.40, 0.00, 0.00, 0.000, 0.000, 0.000, 10:07:57.638
46, 14.46, 4.40, 0.00, 0.00, 0.000, 0.000, 0.000, 10:07:57.638
47, 16.55, -1.48, 0.00, 0.00, 0.000, 0.000, 0.000, 10:07:57.639
48, 12.73, -0.82, 0.00, 0.00, 0.000, 0.000, 0.000, 10:07:57.639
49, 10.83, 0.28, 0.00, 0.00, 0.000, 0.000, 0.000, 10:07:57.653
50, 12.27, 2.68, 0.00, 0.00, 0.000, 0.000, 0.000, 10:07:57.653
51, 14.52, -3.49, 0.00, 0.00, 0.000, 0.000, 0.000, 10:07:57.668
52, 11.24, -1.79, 0.00, 0.00, 0.000, 0.000, 0.000, 10:07:57.668
53, 8.53, 5.62, 0.00, 0.00, 0.000, 0.000, 0.000, 10:07:57.668
54, 15.16, 5.77, 0.00, 0.00, 0.000, 0.000, 0.000, 10:07:57.668
55, 14.75, -1.49, 0.00, 0.00, 0.000, 0.000, 0.000, 10:07:57.682
56, 10.83, 0.82, 0.00, 0.00, 0.000, 0.000, 0.000, 10:07:57.683
57, 7.99, -0.98, 0.00, 0.00, 0.000, 0.000, 0.000, 10:07:57.697
58, 11.65, 4.71, 0.00, 0.00, 0.000, 0.000, 0.000, 10:07:57.697
59, 15.65, -0.18, 0.00, 0.00, 0.000, 0.000, 0.000, 10:07:57.697
60, 10.01, 0.25, 0.00, 0.00, 0.000, 0.000, 0.000, 10:07:57.697
61, 7.09, 1.70, 0.00, 0.00, 0.000, 0.000, 0.000, 10:07:57.712
62, 12.11, 3.96, 0.00, 0.00, 0.000, 0.000, 0.000, 10:07:57.712
63, 17.58, -3.52, 0.00, 0.00, 0.000, 0.000, 0.000, 10:07:57.727
64, 11.81, -1.60, 0.00, 0.00, 0.000, 0.000, 0.000, 10:07:57.727
65, 9.22, 3.91, 0.00, 0.00, 0.000, 0.000, 0.000, 10:07:57.727
66, 15.52, 1.64, 0.00, 0.00, 0.000, 0.000, 0.000, 10:07:57.727
67, 13.50, -4.01, 0.00, 0.00, 0.000, 0.000, 0.000, 10:07:57.742
68, 9.89, 0.93, 0.00, 0.00, 0.000, 0.000, 0.000, 10:07:57.742
69, 6.31, 1.32, 0.00, 0.00, 0.000, 0.000, 0.000, 10:07:57.757
70, 11.46, 0.13, 0.00, 0.00, 0.000, 0.000, 0.000, 10:07:57.757
71, 12.94, -0.55, 0.00, 0.00, 0.000, 0.000, 0.000, 10:07:57.757
72, 9.72, -3.04, 0.00, 0.00, 0.000, 0.000, 0.000, 10:07:57.757
73, 9.20, -1.32, 0.00, 0.00, 0.000, 0.000, 0.000, 10:07:57.772
74, 13.14, -0.74, 0.00, 0.00, 0.000, 0.000, 0.000, 10:07:57.772
75, 16.17, -3.57, 0.00, 0.00, 0.000, 0.000, 0.000, 10:07:57.787
76, 10.89, -2.39, 0.00, 0.00, 0.000, 0.000, 0.000, 10:07:57.787
77, 10.84, 3.08, 0.00, 0.00, 0.000, 0.000, 0.000, 10:07:57.787
78, 14.21, -3.40, 0.00, 0.00, 0.000, 0.000, 0.000, 10:07:57.787
79, 14.75, -2.43, 0.00, 0.00, 0.000, 0.000, 0.000, 10:07:57.803
80, 11.27, -1.89, 0.00, 0.00, 0.000, 0.000, 0.000, 10:07:57.803
81, 9.04, 2.43, 0.00, 0.00, 0.000, 0.000, 0.000, 10:07:57.817
82, 19.33, -2.31, 0.00, 0.00, 0.000, 0.000, 0.000, 10:07:57.817
83, 14.49, 0.24, 0.00, 0.00, 0.000, 0.000, 0.000, 10:07:57.817
84, 10.56, -0.62, 0.00, 0.00, 0.000, 0.000, 0.000, 10:07:57.817
85, 11.69, -1.23, 0.00, 0.00, 0.000, 0.000, 0.000, 10:07:57.833
86, 13.92, 1.96, 0.00, 0.00, 0.000, 0.000, 0.000, 10:07:57.833
87, 15.74, -4.49, 0.00, 0.00, 0.000, 0.000, 0.000, 10:07:57.849
88, 10.61, -1.82, 0.00, 0.00, 0.000, 0.000, 0.000, 10:07:57.849
89, 10.30, 1.52, 0.00, 0.00, 0.000, 0.000, 0.000, 10:07:57.849
90, 15.36, 3.18, 0.00, 0.00, 0.000, 0.000, 0.000, 10:07:57.849
91, 14.77, -5.67, 0.00, 0.00, 0.000, 0.000, 0.000, 10:07:57.862
92, 10.15, -0.68, 0.00, 0.00, 0.000, 0.000, 0.000, 10:07:57.862
93, 11.88, 0.19, 0.00, 0.00, 0.000, 0.000, 0.000, 10:07:57.877
94, 13.75, -0.16, 0.00, 0.00, 0.000, 0.000, 0.000, 10:07:57.877
95, 14.58, 0.78, 0.00, 0.00, 0.000, 0.000, 0.000, 10:07:57.877
96, 10.61, -4.28, 0.00, 0.00, 0.000, 0.000, 0.000, 10:07:57.877
97, 10.42, 1.98, 0.00, 0.00, 0.000, 0.000, 0.000, 10:07:57.892
98, 11.49, 5.87, 0.00, 0.00, 0.000, 0.000, 0.000, 10:07:57.892
99, 14.29, -3.75, 0.00, 0.00, 0.000, 0.000, 0.000, 10:07:57.907
100, 12.12, -1.86, 0.00, 0.00, 0.000, 0.000, 0.000, 10:07:57.907
101, 10.62, 6.05, 0.00, 0.00, 0.000, 0.000, 0.000, 10:07:57.908
102, 12.64, 2.47, 0.00, 0.00, 0.000, 0.000, 0.000, 10:07:57.908
103, 13.39, 0.16, 0.00, 0.00, 0.000, 0.000, 0.000, 10:07:57.922
104, 7.65, 3.90, 0.00, 0.00, 0.000, 0.000, 0.000, 10:07:57.922
105, 9.30, 0.64, 0.00, 0.00, 0.000, 0.000, 0.000, 10:07:57.938
106, 16.35, 2.28, 0.00, 0.00, 0.000, 0.000, 0.000, 10:07:57.938
107, 15.97, -0.21, 0.00, 0.00, 0.000, 0.000, 0.000, 10:07:57.938
108, 10.22, -3.45, 0.00, 0.00, 0.000, 0.000, 0.000, 10:07:57.938
109, 10.21, 1.32, 0.00, 0.00, 0.000, 0.000, 0.000, 10:07:57.952
110, 11.83, 9.09, 0.00, 0.00, 0.000, 0.000, 0.000, 10:07:57.952
111, 15.42, -1.44, 0.00, 0.00, 0.000, 0.000, 0.000, 10:07:57.967
112, 13.06, -0.12, 0.00, 0.00, 0.000, 0.000, 0.000, 10:07:57.967
113, 9.60, 8.50, 0.00, 0.00, 0.000, 0.000, 0.000, 10:07:57.967
114, 13.21, 1.79, 0.00, 0.00, 0.000, 0.000, 0.000, 10:07:57.967
115, 15.89, 2.20, 0.00, 0.00, 0.000, 0.000, 0.000, 10:07:57.982
116, 9.17, 5.33, 0.00, 0.00, 0.000, 0.000, 0.000, 10:07:57.983
117, 10.39, 2.82, 0.00, 0.00, 0.000, 0.000, 0.000, 10:07:57.997
118, 15.11, 3.53, 0.00, 0.00, 0.000, 0.000, 0.000, 10:07:57.998
119, 15.29, -1.19, 0.00, 0.00, 0.000, 0.000, 0.000, 10:07:57.998
120, 7.93, -0.08, 0.00, 0.00, 0.000, 0.000, 0.000, 10:07:57.998
121, 5.53, 2.77, 0.00, 0.00, 0.000, 0.000, 0.000, 10:07:58.012
122, 12.15, 6.56, 0.00, 0.00, 0.000, 0.000, 0.000, 10:07:58.012
123, 13.07, 2.93, 0.00, 0.00, 0.000, 0.000, 0.000, 10:07:58.027
124, 9.59, -2.17, 0.00, 0.00, 0.000, 0.000, 0.000, 10:07:58.027
125, 7.47, 4.54, 0.00, 0.00, 0.000, 0.000, 0.000, 10:07:58.027
126, 12.78, 3.64, 0.00, 0.00, 0.000, 0.000, 0.000, 10:07:58.027
127, 14.76, -1.64, 0.00, 0.00, 0.000, 0.000, 0.000, 10:07:58.042
128, 12.52, -0.20, 0.00, 0.00, 0.000, 0.000, 0.000, 10:07:58.043
129, 10.29, 0.28, 0.00, 0.00, 0.000, 0.000, 0.000, 10:07:58.058
130, 18.36, 3.06, 0.00, 0.00, 0.000, 0.000, 0.000, 10:07:58.058
131, 14.26, -0.73, 0.00, 0.00, 0.000, 0.000, 0.000, 10:07:58.058
132, 12.73, -2.96, 0.00, 0.00, 0.000, 0.000, 0.000, 10:07:58.058
133, 8.11, -2.75, 0.00, 0.00, 0.000, 0.000, 0.000, 10:07:58.072
134, 13.86, 5.88, 0.00, 0.00, 0.000, 0.000, 0.000, 10:07:58.072
135, 16.32, -4.03, 0.00, 0.00, 0.000, 0.000, 0.000, 10:07:58.087
136, 10.77, -3.35, 0.00, 0.00, 0.000, 0.000, 0.000, 10:07:58.087
137, 8.34, -0.70, 0.00, 0.00, 0.000, 0.000, 0.000, 10:07:58.088
138, 12.94, 3.41, 0.00, 0.00, 0.000, 0.000, 0.000, 10:07:58.088
139, 12.78, -2.63, 0.00, 0.00, 0.000, 0.000, 0.000, 10:07:58.102
140, 10.61, 1.62, 0.00, 0.00, 0.000, 0.000, 0.000, 10:07:58.102
141, 11.22, 0.64, 0.00, 0.00, 0.000, 0.000, 0.000, 10:07:58.117
142, 14.66, -0.67, 0.00, 0.00, 0.000, 0.000, 0.000, 10:07:58.117
143, 15.15, -3.69, 0.00, 0.00, 0.000, 0.000, 0.000, 10:07:58.117
144, 11.41, -4.93, 0.00, 0.00, 0.000, 0.000, 0.000, 10:07:58.117
145, 13.37, -1.14, 0.00, 0.00, 0.000, 0.000, 0.000, 10:07:58.132
146, 13.57, 5.82, 0.00, 0.00, 0.000, 0.000, 0.000, 10:07:58.132
147, 12.95, -6.63, 0.00, 0.00, 0.000, 0.000, 0.000, 10:07:58.147
148, 12.98, -2.89, 0.00, 0.00, 0.000, 0.000, 0.000, 10:07:58.148
149, 9.79, 6.68, 0.00, 0.00, 0.000, 0.000, 0.000, 10:07:58.148
150, 16.02, 2.35, 0.00, 0.00, 0.000, 0.000, 0.000, 10:07:58.148
151, 16.16, -1.97, 0.00, 0.00, 0.000, 0.000, 0.000, 10:07:58.162
152, 11.29, -0.70, 0.00, 0.00, 0.000, 0.000, 0.000, 10:07:58.162
153, 10.78, -0.14, 0.00, 0.00, 0.000, 0.000, 0.000, 10:07:58.177
154, 13.48, -0.45, 0.00, 0.00, 0.000, 0.000, 0.000, 10:07:58.177
155, 14.11, -0.80, 0.00, 0.00, 0.000, 0.000, 0.000, 10:07:58.178
156, 10.95, -0.46, 0.00, 0.00, 0.000, 0.000, 0.000, 10:07:58.178
157, 7.93, -1.88, 0.00, 0.00, 0.000, 0.000, 0.000, 10:07:58.192
158, 16.58, 2.89, 0.00, 0.00, 0.000, 0.000, 0.000, 10:07:58.192
159, 14.78, -1.29, 0.00, 0.00, 0.000, 0.000, 0.000, 10:07:58.207
160, 12.61, 1.94, 0.00, 0.00, 0.000, 0.000, 0.000, 10:07:58.207
161, 12.20, 5.35, 0.00, 0.00, 0.000, 0.000, 0.000, 10:07:58.208
162, 16.25, 3.69, 0.00, 0.00, 0.000, 0.000, 0.000, 10:07:58.208
163, 14.56, -1.82, 0.00, 0.00, 0.000, 0.000, 0.000, 10:07:58.222
164, 9.24, 0.51, 0.00, 0.00, 0.000, 0.000, 0.000, 10:07:58.222
165, 12.07, -0.76, 0.00, 0.00, 0.000, 0.000, 0.000, 10:07:58.237
166, 16.17, 0.37, 0.00, 0.00, 0.000, 0.000, 0.000, 10:07:58.237
167, 16.04, -0.83, 0.00, 0.00, 0.000, 0.000, 0.000, 10:07:58.237
168, 12.82, 0.80, 0.00, 0.00, 0.000, 0.000, 0.000, 10:07:58.238
169, 8.60, 1.18, 0.00, 0.00, 0.000, 0.000, 0.000, 10:07:58.252
170, 16.76, 5.80, 0.00, 0.00, 0.000, 0.000, 0.000, 10:07:58.252
171, 16.37, -3.84, 0.00, 0.00, 0.000, 0.000, 0.000, 10:07:58.268
172, 12.21, -3.84, 0.00, 0.00, 0.000, 0.000, 0.000, 10:07:58.268
173, 11.11, 2.33, 0.00, 0.00, 0.000, 0.000, 0.000, 10:07:58.268
174, 12.96, 5.51, 0.00, 0.00, 0.000, 0.000, 0.000, 10:07:58.268
175, 18.77, -3.45, 0.00, 0.00, 0.000, 0.000, 0.000, 10:07:58.282
176, 11.02, -0.35, 0.00, 0.00, 0.000, 0.000, 0.000, 10:07:58.283
177, 7.79, 0.53, 0.00, 0.00, 0.000, 0.000, 0.000, 10:07:58.297
178, 13.10, 0.21, 0.00, 0.00, 0.000, 0.000, 0.000, 10:07:58.297
179, 18.59, -2.76, 0.00, 0.00, 0.000, 0.000, 0.000, 10:07:58.298
180, 12.38, -0.61, 0.00, 0.00, 0.000, 0.000, 0.000, 10:07:58.298
181, 9.96, 4.82, 0.00, 0.00, 0.000, 0.000, 0.000, 10:07:58.312
182, 13.45, 7.87, 0.00, 0.00, 0.000, 0.000, 0.000, 10:07:58.313
183, 14.75, -0.59, 0.00, 0.00, 0.000, 0.000, 0.000, 10:07:58.327
184, 15.66, 2.10, 0.00, 0.00, 0.000, 0.000, 0.000, 10:07:58.327
185, 10.71, 1.66, 0.00, 0.00, 0.000, 0.000, 0.000, 10:07:58.335
186, 14.98, -1.03, 0.00, 0.00, 0.000, 0.000, 0.000, 10:07:58.335
187, 13.96, -3.41, 0.00, 0.00, 0.000, 0.000, 0.000, 10:07:58.342
188, 15.55, -2.03, 0.00, 0.00, 0.000, 0.000, 0.000, 10:07:58.342
189, 12.73, -0.30, 0.00, 0.00, 0.000, 0.000, 0.000, 10:07:58.357
190, 17.02, 3.56, 0.00, 0.00, 0.000, 0.000, 0.000, 10:07:58.357
191, 14.70, -0.23, 0.00, 0.00, 0.000, 0.000, 0.000, 10:07:58.357
192, 10.60, -1.31, 0.00, 0.00, 0.000, 0.000, 0.000, 10:07:58.357
193, 8.56, -0.72, 0.00, 0.00, 0.000, 0.000, 0.000, 10:07:58.372
194, 15.42, 3.00, 0.00, 0.00, 0.000, 0.000, 0.000, 10:07:58.372
195, 15.59, -0.30, 0.00, 0.00, 0.000, 0.000, 0.000, 10:07:58.387
196, 9.24, -0.84, 0.00, 0.00, 0.000, 0.000, 0.000, 10:07:58.387
197, 11.15, -0.32, 0.00, 0.00, 0.000, 0.000, 0.000, 10:07:58.387
198, 14.52, -2.64, 0.00, 0.00, 0.000, 0.000, 0.000, 10:07:58.388
199, 15.51, -6.40, 0.00, 0.00, 0.000, 0.000, 0.000, 10:07:58.403
200, 12.95, 0.55, 0.00, 0.00, 0.000, 0.000, 0.000, 10:07:58.403
0, 13.97, 5.43, 0.00, 0.00, 0.000, 0.000, 0.000, 10:07:58.403
1, 14.40, 1.09, 0.00, 0.00, 0.000, 0.000, 0.000, 10:07:58.417
2, 13.87, -2.54, 0.00, 0.00, 0.000, 0.000, 0.000, 10:07:58.417
3, 13.71, 0.53, 0.00, 0.00, 0.000, 0.000, 0.000, 10:07:58.432
4, 9.68, 2.39, 0.00, 0.00, 0.000, 0.000, 0.000, 10:07:58.432
5, 12.75, 3.37, 0.00, 0.00, 0.000, 0.000, 0.000, 10:07:58.433
6, 16.05, -5.48, 0.00, 0.00, 0.000, 0.000, 0.000, 10:07:58.433
7, 8.44, -3.47, 0.00, 0.00, 0.000, 0.000, 0.000, 10:07:58.447
8, 7.73, 8.65, 0.00, 0.00, 0.000, 0.000, 0.000, 10:07:58.447
9, 14.00, 7.78, 0.00, 0.00, 0.000, 0.000, 0.000, 10:07:58.463
10, 13.03, -5.41, 0.00, 0.00, 0.000, 0.000, 0.000, 10:07:58.463
11, 11.07, -2.18, 0.00, 0.00, 0.000, 0.000, 0.000, 10:07:58.463
12, 9.08, -3.23, 0.00, 0.00, 0.000, 0.000, 0.000, 10:07:58.463
13, 17.00, 6.15, 0.00, 0.00, 0.000, 0.000, 0.000, 10:07:58.477
14, 15.19, 0.84, 0.00, 0.00, 0.000, 0.000, 0.000, 10:07:58.477
15, 11.03, -3.19, 0.00, 0.00, 0.000, 0.000, 0.000, 10:07:58.492
16, 9.11, -1.41, 0.00, 0.00, 0.000, 0.000, 0.000, 10:07:58.492
17, 15.37, 4.69, 0.00, 0.00, 0.000, 0.000, 0.000, 10:07:58.493
18, 17.91, -5.52, 0.00, 0.00, 0.000, 0.000, 0.000, 10:07:58.493
19, 8.10, -3.75, 0.00, 0.00, 0.000, 0.000, 0.000, 10:07:58.507
20, 10.61, 4.42, 0.00, 0.00, 0.000, 0.000, 0.000, 10:07:58.507
21, 15.75, 1.29, 0.00, 0.00, 0.000, 0.000, 0.000, 10:07:58.522
22, 13.10, 1.43, 0.00, 0.00, 0.000, 0.000, 0.000, 10:07:58.522
23, 5.53, -1.46, 0.00, 0.00, 0.000, 0.000, 0.000, 10:07:58.522
24, 9.69, -1.16, 0.00, 0.00, 0.000, 0.000, 0.000, 10:07:58.523
25, 13.74, -1.25, 0.00, 0.00, 0.000, 0.000, 0.000, 10:07:58.538
26, 16.46, -2.70, 0.00, 0.00, 0.000, 0.000, 0.000, 10:07:58.538
27, 9.71, -1.45, 0.00, 0.00, 0.000, 0.000, 0.000, 10:07:58.552
28, 7.24, -0.17, 0.00, 0.00, 0.000, 0.000, 0.000, 10:07:58.552
29, 15.53, 1.98, 0.00, 0.00, 0.000, 0.000, 0.000, 10:07:58.552
30, 14.07, -0.48, 0.00, 0.00, 0.000, 0.000, 0.000, 10:07:58.552
31, 13.01, 1.57, 0.00, 0.00, 0.000, 0.000, 0.000, 10:07:58.568
32, 9.64, 3.22, 0.00, 0.00, 0.000, 0.000, 0.000, 10:07:58.568
33, 14.34, 3.30, 0.00, 0.00, 0.000, 0.000, 0.000, 10:07:58.582
34, 16.78, -2.18, 0.00, 0.00, 0.000, 0.000, 0.000, 10:07:58.583
35, 11.58, -0.13, 0.00, 0.00, 0.000, 0.000, 0.000, 10:07:58.583
36, 12.12, 0.77, 0.00, 0.00, 0.000, 0.000, 0.000, 10:07:58.583
37, 13.76, 2.43, 0.00, 0.00, 0.000, 0.000, 0.000, 10:07:58.597
38, 16.93, -2.64, 0.00, 0.00, 0.000, 0.000, 0.000, 10:07:58.597
39, 13.10, -4.31, 0.00, 0.00, 0.000, 0.000, 0.000, 10:07:58.613
40, 9.77, 1.08, 0.00, 0.00, 0.000, 0.000, 0.000, 10:07:58.613
41, 13.98, 5.89, 0.00, 0.00, 0.000, 0.000, 0.000, 10:07:58.613
42, 16.19, -0.67, 0.00, 0.00, 0.000, 0.000, 0.000, 10:07:58.613
43, 11.17, 0.72, 0.00, 0.00, 0.000, 0.000, 0.000, 10:07:58.629
44, 10.60, 1.62, 0.00, 0.00, 0.000, 0.000, 0.000, 10:07:58.630
45, 13.83, 0.78, 0.00, 0.00, 0.000, 0.000, 0.000, 10:07:58.643
46, 14.46, -2.82, 0.00, 0.00, 0.000, 0.000, 0.000, 10:07:58.643
47, 8.52, 2.01, 0.00, 0.00, 0.000, 0.000, 0.000, 10:07:58.643
48, 9.40, 2.96, 0.00, 0.00, 0.000, 0.000, 0.000, 10:07:58.643
49, 14.85, 1.45, 0.00, 0.00, 0.000, 0.000, 0.000, 10:07:58.657
50, 14.98, -2.75, 0.00, 0.00, 0.000, 0.000, 0.000, 10:07:58.657
51, 12.71, 1.61, 0.00, 0.00, 0.000, 0.000, 0.000, 10:07:58.671
52, 9.62, -0.04, 0.00, 0.00, 0.000, 0.000, 0.000, 10:07:58.672
53, 13.26, 3.78, 0.00, 0.00, 0.000, 0.000, 0.000, 10:07:58.672
54, 17.31, -2.29, 0.00, 0.00, 0.000, 0.000, 0.000, 10:07:58.672
55, 9.73, -1.14, 0.00, 0.00, 0.000, 0.000, 0.000, 10:07:58.687
56, 9.01, 5.48, 0.00, 0.00, 0.000, 0.000, 0.000, 10:07:58.687
57, 14.92, 3.28, 0.00, 0.00, 0.000, 0.000, 0.000, 10:07:58.702
58, 12.94, -3.32, 0.00, 0.00, 0.000, 0.000, 0.000, 10:07:58.702
59, 11.33, -0.33, 0.00, 0.00, 0.000, 0.000, 0.000, 10:07:58.702
60, 11.27, 1.80, 0.00, 0.00, 0.000, 0.000, 0.000, 10:07:58.703
61, 13.26, 5.53, 0.00, 0.00, 0.000, 0.000, 0.000, 10:07:58.717
62, 13.40, 3.25, 0.00, 0.00, 0.000, 0.000, 0.000, 10:07:58.717
63, 9.84, -1.72, 0.00, 0.00, 0.000, 0.000, 0.000, 10:07:58.733
64, 10.02, -3.66, 0.00, 0.00, 0.000, 0.000, 0.000, 10:07:58.733
65, 15.41, 5.45, 0.00, 0.00, 0.000, 0.000, 0.000, 10:07:58.733
66, 17.46, -2.25, 0.00, 0.00, 0.000, 0.000, 0.000, 10:07:58.733
67, 13.79, -0.33, 0.00, 0.00, 0.000, 0.000, 0.000, 10:07:58.753
68, 8.41, 7.45, 0.00, 0.00, 0.000, 0.000, 0.000, 10:07:58.753
69, 13.41, 3.86, 0.00, 0.00, 0.000, 0.000, 0.000, 10:07:58.763
70, 18.49, -0.85, 0.00, 0.00, 0.000, 0.000, 0.000, 10:07:58.763
71, 12.69, -0.12, 0.00, 0.00, 0.000, 0.000, 0.000, 10:07:58.763
72, 13.42, 2.27, 0.00, 0.00, 0.000, 0.000, 0.000, 10:07:58.763
73, 15.12, 3.59, 0.00, 0.00, 0.000, 0.000, 0.000, 10:07:58.777
74, 14.91, -0.37, 0.00, 0.00, 0.000, 0.000, 0.000, 10:07:58.777
75, 12.79, -0.69, 0.00, 0.00, 0.000, 0.000, 0.000, 10:07:58.792
76, 10.73, 0.18, 0.00, 0.00, 0.000, 0.000, 0.000, 10:07:58.792
77, 12.66, 4.47, 0.00, 0.00, 0.000, 0.000, 0.000, 10:07:58.792
78, 15.67, -3.18, 0.00, 0.00, 0.000, 0.000, 0.000, 10:07:58.792
79, 7.94, 1.14, 0.00, 0.00, 0.000, 0.000, 0.000, 10:07:58.807
80, 6.94, 3.77, 0.00, 0.00, 0.000, 0.000, 0.000, 10:07:58.807
81, 14.32, 1.62, 0.00, 0.00, 0.000, 0.000, 0.000, 10:07:58.822
82, 13.55, -3.49, 0.00, 0.00, 0.000, 0.000, 0.000, 10:07:58.822
83, 9.98, -2.76, 0.00, 0.00, 0.000, 0.000, 0.000, 10:07:58.822
84, 9.57, 3.21, 0.00, 0.00, 0.000, 0.000, 0.000, 10:07:58.822
85, 14.00, 2.05, 0.00, 0.00, 0.000, 0.000, 0.000, 10:07:58.836
86, 17.63, 0.13, 0.00, 0.00, 0.000, 0.000, 0.000, 10:07:58.837
87, 10.90, -4.22, 0.00, 0.00, 0.000, 0.000, 0.000, 10:07:58.852
88, 11.40, 1.77, 0.00, 0.00, 0.000, 0.000, 0.000, 10:07:58.852
89, 15.40, 1.17, 0.00, 0.00, 0.000, 0.000, 0.000, 10:07:58.852
90, 12.88, -6.92, 0.00, 0.00, 0.000, 0.000, 0.000, 10:07:58.852
91, 8.27, -2.77, 0.00, 0.00, 0.000, 0.000, 0.000, 10:07:58.867
92, 8.69, 8.07, 0.00, 0.00, 0.000, 0.000, 0.000, 10:07:58.868
93, 13.03, 5.58, 0.00, 0.00, 0.000, 0.000, 0.000, 10:07:58.883
94, 13.24, -6.22, 0.00, 0.00, 0.000, 0.000, 0.000, 10:07:58.883
95, 7.65, 0.46, 0.00, 0.00, 0.000, 0.000, 0.000, 10:07:58.883
96, 8.51, 0.07, 0.00, 0.00, 0.000, 0.000, 0.000, 10:07:58.883
97, 16.72, 1.41, 0.00, 0.00, 0.000, 0.000, 0.000, 10:07:58.898
98, 17.66, -3.36, 0.00, 0.00, 0.000, 0.000, 0.000, 10:07:58.898
99, 11.64, 2.02, 0.00, 0.00, 0.000, 0.000, 0.000, 10:07:58.913
100, 13.63, 2.02, 0.00, 0.00, 0.000, 0.000, 0.000, 10:07:58.914
101, 12.47, 3.15, 0.00, 0.00, 0.000, 0.000, 0.000, 10:07:58.914
102, 16.74, -5.26, 0.00, 0.00, 0.000, 0.000, 0.000, 10:07:58.914
103, 11.93, -1.08, 0.00, 0.00, 0.000, 0.000, 0.000, 10:07:58.927
104, 13.01, 3.95, 0.00, 0.00, 0.000, 0.000, 0.000, 10:07:58.927
105, 14.44, 4.63, 0.00, 0.00, 0.000, 0.000, 0.000, 10:07:58.942
106, 13.39, -4.91, 0.00, 0.00, 0.000, 0.000, 0.000, 10:07:58.942
107, 8.68, -2.11, 0.00, 0.00, 0.000, 0.000, 0.000, 10:07:58.943
108, 8.44, -3.11, 0.00, 0.00, 0.000, 0.000, 0.000, 10:07:58.943
109, 17.28, 6.52, 0.00, 0.00, 0.000, 0.000, 0.000, 10:07:58.957
110, 15.23, 1.65, 0.00, 0.00, 0.000, 0.000, 0.000, 10:07:58.957
111, 7.78, -4.32, 0.00, 0.00, 0.000, 0.000, 0.000, 10:07:58.972
112, 13.32, 0.97, 0.00, 0.00, 0.000, 0.000, 0.000, 10:07:58.972
113, 13.19, 0.87, 0.00, 0.00, 0.000, 0.000, 0.000, 10:07:58.972
114, 13.33, -1.17, 0.00, 0.00, 0.000, 0.000, 0.000, 10:07:58.972
115, 10.21, -1.21, 0.00, 0.00, 0.000, 0.000, 0.000, 10:07:58.987
116, 8.96, 4.58, 0.00, 0.00, 0.000, 0.000, 0.000, 10:07:58.987
117, 13.42, 1.20, 0.00, 0.00, 0.000, 0.000, 0.000, 10:07:59.002
118, 13.53, -6.35, 0.00, 0.00, 0.000, 0.000, 0.000, 10:07:59.003
119, 10.29, -4.21, 0.00, 0.00, 0.000, 0.000, 0.000, 10:07:59.003
120, 13.76, 0.86, 0.00, 0.00, 0.000, 0.000, 0.000, 10:07:59.003
121, 13.51, -1.04, 0.00, 0.00, 0.000, 0.000, 0.000, 10:07:59.024
122, 13.39, -0.42, 0.00, 0.00, 0.000, 0.000, 0.000, 10:07:59.025
123, 7.11, -7.33, 0.00, 0.00, 0.000, 0.000, 0.000, 10:07:59.032
124, 10.24, -1.45, 0.00, 0.00, 0.000, 0.000, 0.000, 10:07:59.032
125, 12.54, 4.36, 0.00, 0.00, 0.000, 0.000, 0.000, 10:07:59.033
126, 12.60, -4.18, 0.00, 0.00, 0.000, 0.000, 0.000, 10:07:59.033
127, 9.61, 0.35, 0.00, 0.00, 0.000, 0.000, 0.000, 10:07:59.047
128, 10.29, 4.56, 0.00, 0.00, 0.000, 0.000, 0.000, 10:07:59.047
129, 13.25, 0.99, 0.00, 0.00, 0.000, 0.000, 0.000, 10:07:59.062
130, 15.02, -3.62, 0.00, 0.00, 0.000, 0.000, 0.000, 10:07:59.062
131, 11.33, 1.87, 0.00, 0.00, 0.000, 0.000, 0.000, 10:07:59.062
132, 10.50, -2.22, 0.00, 0.00, 0.000, 0.000, 0.000, 10:07:59.063
133, 17.63, -5.54, 0.00, 0.00, 0.000, 0.000, 0.000, 10:07:59.077
134, 16.42, -3.36, 0.00, 0.00, 0.000, 0.000, 0.000, 10:07:59.077
135, 12.00, -0.05, 0.00, 0.00, 0.000, 0.000, 0.000, 10:07:59.093
136, 11.52, 3.86, 0.00, 0.00, 0.000, 0.000, 0.000, 10:07:59.093
137, 15.52, 5.37, 0.00, 0.00, 0.000, 0.000, 0.000, 10:07:59.093
138, 14.85, -4.41, 0.00, 0.00, 0.000, 0.000, 0.000, 10:07:59.093
139, 10.94, 2.56, 0.00, 0.00, 0.000, 0.000, 0.000, 10:07:59.107
140, 9.58, 7.15, 0.00, 0.00, 0.000, 0.000, 0.000, 10:07:59.107
141, 13.83, -0.37, 0.00, 0.00, 0.000, 0.000, 0.000, 10:07:59.122
142, 18.06, -4.56, 0.00, 0.00, 0.000, 0.000, 0.000, 10:07:59.122
143, 13.23, -0.78, 0.00, 0.00, 0.000, 0.000, 0.000, 10:07:59.122
144, 11.23, 5.76, 0.00, 0.00, 0.000, 0.000, 0.000, 10:07:59.122
145, 17.48, 8.39, 0.00, 0.00, 0.000, 0.000, 0.000, 10:07:59.137
146, 14.81, 0.39, 0.00, 0.00, 0.000, 0.000, 0.000, 10:07:59.137
147, 12.54, -0.60, 0.00, 0.00, 0.000, 0.000, 0.000, 10:07:59.152
148, 10.23, 4.98, 0.00, 0.00, 0.000, 0.000, 0.000, 10:07:59.152
149, 14.87, 6.46, 0.00, 0.00, 0.000, 0.000, 0.000, 10:07:59.152
150, 19.00, -3.48, 0.00, 0.00, 0.000, 0.000, 0.000, 10:07:59.152
151, 13.42, -2.00, 0.00, 0.00, 0.000, 0.000, 0.000, 10:07:59.167
152, 10.80, 7.09, 0.00, 0.00, 0.000, 0.000, 0.000, 10:07:59.167
153, 14.77, 6.40, 0.00, 0.00, 0.000, 0.000, 0.000, 10:07:59.183
154, 14.01, -0.82, 0.00, 0.00, 0.000, 0.000, 0.000, 10:07:59.183
155, 8.26, 1.73, 0.00, 0.00, 0.000, 0.000, 0.000, 10:07:59.184
156, 9.47, 3.58, 0.00, 0.00, 0.000, 0.000, 0.000, 10:07:59.184
157, 14.82, 1.65, 0.00, 0.00, 0.000, 0.000, 0.000, 10:07:59.197
158, 12.97, 1.74, 0.00, 0.00, 0.000, 0.000, 0.000, 10:07:59.197
159, 9.21, -4.60, 0.00, 0.00, 0.000, 0.000, 0.000, 10:07:59.212
160, 13.07, 0.19, 0.00, 0.00, 0.000, 0.000, 0.000, 10:07:59.212
161, 12.20, 5.55, 0.00, 0.00, 0.000, 0.000, 0.000, 10:07:59.212
162, 18.83, -2.25, 0.00, 0.00, 0.000, 0.000, 0.000, 10:07:59.212
163, 10.85, -1.35, 0.00, 0.00, 0.000, 0.000, 0.000, 10:07:59.283
164, 9.29, 5.06, 0.00, 0.00, 0.000, 0.000, 0.000, 10:07:59.283
165, 16.24, 2.72, 0.00, 0.00, 0.000, 0.000, 0.000, 10:07:59.283
166, 14.38, -3.04, 0.00, 0.00, 0.000, 0.000, 0.000, 10:07:59.284
167, 11.85, -4.21, 0.00, 0.00, 0.000, 0.000, 0.000, 10:07:59.284
168, 9.73, -1.75, 0.00, 0.00, 0.000, 0.000, 0.000, 10:07:59.284
169, 16.98, 3.53, 0.00, 0.00, 0.000, 0.000, 0.000, 10:07:59.284
170, 16.37, -2.29, 0.00, 0.00, 0.000, 0.000, 0.000, 10:07:59.284
171, 10.70, 0.30, 0.00, 0.00, 0.000, 0.000, 0.000, 10:07:59.284
172, 8.09, 1.77, 0.00, 0.00, 0.000, 0.000, 0.000, 10:07:59.284
173, 13.97, 0.34, 0.00, 0.00, 0.000, 0.000, 0.000, 10:07:59.284
174, 16.52, -7.49, 0.00, 0.00, 0.000, 0.000, 0.000, 10:07:59.284
175, 8.23, -2.46, 0.00, 0.00, 0.000, 0.000, 0.000, 10:07:59.303
176, 12.28, 5.89, 0.00, 0.00, 0.000, 0.000, 0.000, 10:07:59.303
177, 15.79, 2.50, 0.00, 0.00, 0.000, 0.000, 0.000, 10:07:59.303
178, 15.75, -5.80, 0.00, 0.00, 0.000, 0.000, 0.000, 10:07:59.303
179, 9.52, -2.01, 0.00, 0.00, 0.000, 0.000, 0.000, 10:07:59.303
180, 10.59, -0.47, 0.00, 0.00, 0.000, 0.000, 0.000, 10:07:59.303
181, 16.90, 1.92, 0.00, 0.00, 0.000, 0.000, 0.000, 10:07:59.317
182, 14.56, -2.66, 0.00, 0.00, 0.000, 0.000, 0.000, 10:07:59.317
183, 10.99, -3.06, 0.00, 0.00, 0.000, 0.000, 0.000, 10:07:59.331
184, 10.76, -3.05, 0.00, 0.00, 0.000, 0.000, 0.000, 10:07:59.332
185, 14.76, 0.52, 0.00, 0.00, 0.000, 0.000, 0.000, 10:07:59.332
186, 14.76, -3.71, 0.00, 0.00, 0.000, 0.000, 0.000, 10:07:59.332
187, 12.94, -2.36, 0.00, 0.00, 0.000, 0.000, 0.000, 10:07:59.347
188, 8.38, 1.78, 0.00, 0.00, 0.000, 0.000, 0.000, 10:07:59.348
189, 13.80, 1.89, 0.00, 0.00, 0.000, 0.000, 0.000, 10:07:59.362
190, 13.11, -4.22, 0.00, 0.00, 0.000, 0.000, 0.000, 10:07:59.362
191, 9.31, 0.90, 0.00, 0.00, 0.000, 0.000, 0.000, 10:07:59.362
192, 10.01, 2.22, 0.00, 0.00, 0.000, 0.000, 0.000, 10:07:59.362
193, 15.52, -0.83, 0.00, 0.00, 0.000, 0.000, 0.000, 10:07:59.377
194, 14.36, -2.55, 0.00, 0.00, 0.000, 0.000, 0.000, 10:07:59.378
195, 6.68, -2.67, 0.00, 0.00, 0.000, 0.000, 0.000, 10:07:59.392
196, 9.72, -0.19, 0.00, 0.00, 0.000, 0.000, 0.000, 10:07:59.392
197, 14.92, 1.25, 0.00, 0.00, 0.000, 0.000, 0.000, 10:07:59.392
198, 11.88, -4.00, 0.00, 0.00, 0.000, 0.000, 0.000, 10:07:59.392
199, 8.84, -1.72, 0.00, 0.00, 0.000, 0.000, 0.000, 10:07:59.407
200, 8.51, 0.98, 0.00, 0.00, 0.000, 0.000, 0.000, 10:07:59.408
0, 14.15, -0.58, 0.00, 0.00, 0.000, 0.000, 0.000, 10:07:59.408
1, 14.57, -1.98, 0.00, 0.00, 0.000, 0.000, 0.000, 10:07:59.422
2, 9.31, 2.04, 0.00, 0.00, 0.000, 0.000, 0.000, 10:07:59.422
3, 9.93, -2.65, 0.00, 0.00, 0.000, 0.000, 0.000, 10:07:59.437
4, 17.74, -4.30, 0.00, 0.00, 0.000, 0.000, 0.000, 10:07:59.437
5, 13.37, -6.46, 0.00, 0.00, 0.000, 0.000, 0.000, 10:07:59.437
6, 8.97, -4.91, 0.00, 0.00, 0.000, 0.000, 0.000, 10:07:59.438
7, 13.03, -1.67, 0.00, 0.00, 0.000, 0.000, 0.000, 10:07:59.452
8, 15.42, 2.01, 0.00, 0.00, 0.000, 0.000, 0.000, 10:07:59.453
9, 15.86, -6.64, 0.00, 0.00, 0.000, 0.000, 0.000, 10:07:59.467
10, 13.81, 2.11, 0.00, 0.00, 0.000, 0.000, 0.000, 10:07:59.467
11, 9.96, 3.48, 0.00, 0.00, 0.000, 0.000, 0.000, 10:07:59.468
12, 15.00, -0.48, 0.00, 0.00, 0.000, 0.000, 0.000, 10:07:59.468
13, 13.46, -4.15, 0.00, 0.00, 0.000, 0.000, 0.000, 10:07:59.482
14, 11.15, 0.09, 0.00, 0.00, 0.000, 0.000, 0.000, 10:07:59.482
15, 11.93, 0.19, 0.00, 0.00, 0.000, 0.000, 0.000, 10:07:59.497
16, 17.01, 5.95, 0.00, 0.00, 0.000, 0.000, 0.000, 10:07:59.497
17, 16.24, 0.04, 0.00, 0.00, 0.000, 0.000, 0.000, 10:07:59.504
18, 11.91, 0.04, 0.00, 0.00, 0.000, 0.000, 0.000, 10:07:59.504
19, 12.45, 3.08, 0.00, 0.00, 0.000, 0.000, 0.000, 10:07:59.512
20, 15.60, 5.12, 0.00, 0.00, 0.000, 0.000, 0.000, 10:07:59.512
21, 16.09, -3.88, 0.00, 0.00, 0.000, 0.000, 0.000, 10:07:59.528
22, 11.62, -0.92, 0.00, 0.00, 0.000, 0.000, 0.000, 10:07:59.528
23, 10.90, 2.57, 0.00, 0.00, 0.000, 0.000, 0.000, 10:07:59.528
24, 15.22, 0.74, 0.00, 0.00, 0.000, 0.000, 0.000, 10:07:59.528
25, 16.47, -6.34, 0.00, 0.00, 0.000, 0.000, 0.000, 10:07:59.543
26, 12.53, 2.03, 0.00, 0.00, 0.000, 0.000, 0.000, 10:07:59.543
27, 14.10, 2.96, 0.00, 0.00, 0.000, 0.000, 0.000, 10:07:59.572
28, 16.43, -1.47, 0.00, 0.00, 0.000, 0.000, 0.000, 10:07:59.572
29, 18.45, -3.21, 0.00, 0.00, 0.000, 0.000, 0.000, 10:07:59.572
30, 11.75, -2.29, 0.00, 0.00, 0.000, 0.000, 0.000, 10:07:59.572
31, 9.96, 7.05, 0.00, 0.00, 0.000, 0.000, 0.000, 10:07:59.573
32, 18.15, 5.95, 0.00, 0.00, 0.000, 0.000, 0.000, 10:07:59.573
33, 17.54, -5.50, 0.00, 0.00, 0.000, 0.000, 0.000, 10:07:59.574
34, 13.74, 1.32, 0.00, 0.00, 0.000, 0.000, 0.000, 10:07:59.574
35, 9.64, 14.00, 0.00, 0.00, 0.000, 0.000, 0.000, 10:07:59.587
36, 14.31, 8.59, 0.00, 0.00, 0.000, 0.000, 0.000, 10:07:59.587
37, 14.36, -0.88, 0.00, 0.00, 0.000, 0.000, 0.000, 10:07:59.602
38, 13.44, 3.52, 0.00, 0.00, 0.000, 0.000, 0.000, 10:07:59.602
39, 13.89, 2.15, 0.00, 0.00, 0.000, 0.000, 0.000, 10:07:59.617
40, 16.13, 5.79, 0.00, 0.00, 0.000, 0.000, 0.000, 10:07:59.617
41, 15.55, -3.52, 0.00, 0.00, 0.000, 0.000, 0.000, 10:07:59.617
42, 12.08, -5.63, 0.00, 0.00, 0.000, 0.000, 0.000, 10:07:59.618
43, 7.70, 3.84, 0.00, 0.00, 0.000, 0.000, 0.000, 10:07:59.632
44, 13.96, 7.52, 0.00, 0.00, 0.000, 0.000, 0.000, 10:07:59.632
45, 13.99, 0.45, 0.00, 0.00, 0.000, 0.000, 0.000, 10:07:59.648
46, 7.75, 0.64, 0.00, 0.00, 0.000, 0.000, 0.000, 10:07:59.648
47, 7.98, 0.79, 0.00, 0.00, 0.000, 0.000, 0.000, 10:07:59.648
48, 15.98, -1.49, 0.00, 0.00, 0.000, 0.000, 0.000, 10:07:59.648
49, 17.81, -2.17, 0.00, 0.00, 0.000, 0.000, 0.000, 10:07:59.677
50, 12.46, 2.40, 0.00, 0.00, 0.000, 0.000, 0.000, 10:07:59.677
51, 10.35, 1.17, 0.00, 0.00, 0.000, 0.000, 0.000, 10:07:59.677
52, 14.34, 1.92, 0.00, 0.00, 0.000, 0.000, 0.000, 10:07:59.678
53, 11.74, 0.25, 0.00, 0.00, 0.000, 0.000, 0.000, 10:07:59.678
54, 8.26, -0.56, 0.00, 0.00, 0.000, 0.000, 0.000, 10:07:59.678
55, 12.22, 2.12, 0.00, 0.00, 0.000, 0.000, 0.000, 10:07:59.693
56, 13.97, 4.07, 0.00, 0.00, 0.000, 0.000, 0.000, 10:07:59.693
57, 15.25, -3.98, 0.00, 0.00, 0.000, 0.000, 0.000, 10:07:59.707
58, 8.09, -0.96, 0.00, 0.00, 0.000, 0.000, 0.000, 10:07:59.708
59, 7.62, 3.92, 0.00, 0.00, 0.000, 0.000, 0.000, 10:07:59.708
60, 13.57, 0.38, 0.00, 0.00, 0.000, 0.000, 0.000, 10:07:59.708
61, 14.71, -3.43, 0.00, 0.00, 0.000, 0.000, 0.000, 10:07:59.722
62, 9.39, -0.33, 0.00, 0.00, 0.000, 0.000, 0.000, 10:07:59.723
63, 11.42, 0.73, 0.00, 0.00, 0.000, 0.000, 0.000, 10:07:59.737
64, 16.08, 3.53, 0.00, 0.00, 0.000, 0.000, 0.000, 10:07:59.737
65, 17.33, -2.96, 0.00, 0.00, 0.000, 0.000, 0.000, 10:07:59.738
66, 9.87, -1.46, 0.00, 0.00, 0.000, 0.000, 0.000, 10:07:59.738
67, 9.52, 4.13, 0.00, 0.00, 0.000, 0.000, 0.000, 10:07:59.752
68, 15.96, 2.55, 0.00, 0.00, 0.000, 0.000, 0.000, 10:07:59.752
69, 15.42, -2.88, 0.00, 0.00, 0.000, 0.000, 0.000, 10:07:59.767
70, 9.49, -2.67, 0.00, 0.00, 0.000, 0.000, 0.000, 10:07:59.767
71, 5.82, 3.41, 0.00, 0.00, 0.000, 0.000, 0.000, 10:07:59.767
72, 11.31, -0.62, 0.00, 0.00, 0.000, 0.000, 0.000, 10:07:59.768
73, 15.31, -6.34, 0.00, 0.00, 0.000, 0.000, 0.000, 10:07:59.782
74, 9.62, -0.91, 0.00, 0.00, 0.000, 0.000, 0.000, 10:07:59.782
75, 11.01, -2.89, 0.00, 0.00, 0.000, 0.000, 0.000, 10:07:59.797
76, 17.41, 0.72, 0.00, 0.00, 0.000, 0.000, 0.000, 10:07:59.798
77, 17.96, -1.23, 0.00, 0.00, 0.000, 0.000, 0.000, 10:07:59.798
78, 10.30, -1.78, 0.00, 0.00, 0.000, 0.000, 0.000, 10:07:59.798
79, 10.12, 1.07, 0.00, 0.00, 0.000, 0.000, 0.000, 10:07:59.812
80, 11.66, 6.83, 0.00, 0.00, 0.000, 0.000, 0.000, 10:07:59.812
81, 13.67, -2.74, 0.00, 0.00, 0.000, 0.000, 0.000, 10:07:59.827
82, 12.21, 2.18, 0.00, 0.00, 0.000, 0.000, 0.000, 10:07:59.827
83, 9.53, 6.04, 0.00, 0.00, 0.000, 0.000, 0.000, 10:07:59.827
84, 15.51, -0.05, 0.00, 0.00, 0.000, 0.000, 0.000, 10:07:59.827
85, 14.63, -2.03, 0.00, 0.00, 0.000, 0.000, 0.000, 10:07:59.842
86, 11.72, 1.15, 0.00, 0.00, 0.000, 0.000, 0.000, 10:07:59.843
87, 9.54, 2.23, 0.00, 0.00, 0.000, 0.000, 0.000, 10:07:59.857
88, 15.12, 3.30, 0.00, 0.00, 0.000, 0.000, 0.000, 10:07:59.857
89, 13.99, -1.59, 0.00, 0.00, 0.000, 0.000, 0.000, 10:07:59.857
90, 12.73, -1.77, 0.00, 0.00, 0.000, 0.000, 0.000, 10:07:59.857
91, 12.97, 0.55, 0.00, 0.00, 0.000, 0.000, 0.000, 10:07:59.872
92, 16.50, 2.96, 0.00, 0.00, 0.000, 0.000, 0.000, 10:07:59.872
93, 12.51, -2.61, 0.00, 0.00, 0.000, 0.000, 0.000, 10:07:59.887
94, 12.22, -1.82, 0.00, 0.00, 0.000, 0.000, 0.000, 10:07:59.887
95, 10.43, 3.51, 0.00, 0.00, 0.000, 0.000, 0.000, 10:07:59.888
96, 15.75, 5.46, 0.00, 0.00, 0.000, 0.000, 0.000, 10:07:59.888
97, 14.51, -3.78, 0.00, 0.00, 0.000, 0.000, 0.000, 10:07:59.902
98, 11.73, 2.26, 0.00, 0.00, 0.000, 0.000, 0.000, 10:07:59.902
99, 11.39, -0.23, 0.00, 0.00, 0.000, 0.000, 0.000, 10:07:59.917
100, 14.78, 3.47, 0.00, 0.00, 0.000, 0.000, 0.000, 10:07:59.917
101, 14.88, -3.53, 0.00, 0.00, 0.000, 0.000, 0.000, 10:07:59.917
102, 14.35, 1.52, 0.00, 0.00, 0.000, 0.000, 0.000, 10:07:59.918
103, 12.42, 3.26, 0.00, 0.00, 0.000, 0.000, 0.000, 10:07:59.933
104, 16.06, 3.88, 0.00, 0.00, 0.000, 0.000, 0.000, 10:07:59.933
105, 14.23, -2.71, 0.00, 0.00, 0.000, 0.000, 0.000, 10:07:59.947
106, 11.70, -0.84, 0.00, 0.00, 0.000, 0.000, 0.000, 10:07:59.947
107, 9.41, 6.14, 0.00, 0.00, 0.000, 0.000, 0.000, 10:07:59.947
108, 11.68, 1.03, 0.00, 0.00, 0.000, 0.000, 0.000, 10:07:59.947
109, 16.76, -6.31, 0.00, 0.00, 0.000, 0.000, 0.000, 10:07:59.963
110, 7.87, 2.50, 0.00, 0.00, 0.000, 0.000, 0.000, 10:07:59.963
111, 12.29, 1.65, 0.00, 0.00, 0.000, 0.000, 0.000, 10:07:59.977
112, 16.27, 5.20, 0.00, 0.00, 0.000, 0.000, 0.000, 10:07:59.977
113, 15.88, 0.09, 0.00, 0.00, 0.000, 0.000, 0.000, 10:07:59.977
114, 9.97, -1.08, 0.00, 0.00, 0.000, 0.000, 0.000, 10:07:59.977
115, 9.76, 2.23, 0.00, 0.00, 0.000, 0.000, 0.000, 10:07:59.998
116, 14.04, 8.75, 0.00, 0.00, 0.000, 0.000, 0.000, 10:07:59.999
117, 13.22, -1.24, 0.00, 0.00, 0.000, 0.000, 0.000, 10:08:00.006
118, 11.33, -3.54, 0.00, 0.00, 0.000, 0.000, 0.000, 10:08:00.007
119, 9.65, 1.93, 0.00, 0.00, 0.000, 0.000, 0.000, 10:08:00.007
120, 15.45, -1.77, 0.00, 0.00, 0.000, 0.000, 0.000, 10:08:00.007
121, 16.50, -4.32, 0.00, 0.00, 0.000, 0.000, 0.000, 10:08:00.022
122, 9.79, -0.10, 0.00, 0.00, 0.000, 0.000, 0.000, 10:08:00.022
123, 9.12, 3.79, 0.00, 0.00, 0.000, 0.000, 0.000, 10:08:00.038
124, 18.19, 2.58, 0.00, 0.00, 0.000, 0.000, 0.000, 10:08:00.038
125, 12.57, -2.35, 0.00, 0.00, 0.000, 0.000, 0.000, 10:08:00.038
126, 8.30, -0.58, 0.00, 0.00, 0.000, 0.000, 0.000, 10:08:00.038
127, 11.27, -3.64, 0.00, 0.00, 0.000, 0.000, 0.000, 10:08:00.052
128, 17.10, 5.18, 0.00, 0.00, 0.000, 0.000, 0.000, 10:08:00.052
129, 14.20, -4.43, 0.00, 0.00, 0.000, 0.000, 0.000, 10:08:00.067
130, 10.43, -4.28, 0.00, 0.00, 0.000, 0.000, 0.000, 10:08:00.067
131, 13.31, -1.98, 0.00, 0.00, 0.000, 0.000, 0.000, 10:08:00.067
132, 16.21, 7.29, 0.00, 0.00, 0.000, 0.000, 0.000, 10:08:00.068
133, 17.60, -4.96, 0.00, 0.00, 0.000, 0.000, 0.000, 10:08:00.083
134, 11.59, -0.39, 0.00, 0.00, 0.000, 0.000, 0.000, 10:08:00.083
135, 10.42, 2.30, 0.00, 0.00, 0.000, 0.000, 0.000, 10:08:00.097
136, 15.29, 1.24, 0.00, 0.00, 0.000, 0.000, 0.000, 10:08:00.097
137, 16.57, 0.89, 0.00, 0.00, 0.000, 0.000, 0.000, 10:08:00.098
138, 10.74, -0.61, 0.00, 0.00, 0.000, 0.000, 0.000, 10:08:00.098
139, 8.23, 3.29, 0.00, 0.00, 0.000, 0.000, 0.000, 10:08:00.112
140, 13.94, 2.14, 0.00, 0.00, 0.000, 0.000, 0.000, 10:08:00.112
141, 14.87, 0.37, 0.00, 0.00, 0.000, 0.000, 0.000, 10:08:00.127
142, 8.08, -4.41, 0.00, 0.00, 0.000, 0.000, 0.000, 10:08:00.127
143, 8.76, -0.03, 0.00, 0.00, 0.000, 0.000, 0.000, 10:08:00.127
144, 13.90, -1.74, 0.00, 0.00, 0.000, 0.000, 0.000, 10:08:00.127
145, 12.22, -3.98, 0.00, 0.00, 0.000, 0.000, 0.000, 10:08:00.142
146, 5.19, -1.14, 0.00, 0.00, 0.000, 0.000, 0.000, 10:08:00.142
147, 9.82, -2.58, 0.00, 0.00, 0.000, 0.000, 0.000, 10:08:00.157
148, 13.29, 0.18, 0.00, 0.00, 0.000, 0.000, 0.000, 10:08:00.157
149, 12.58, -3.05, 0.00, 0.00, 0.000, 0.000, 0.000, 10:08:00.157
150, 8.58, -2.67, 0.00, 0.00, 0.000, 0.000, 0.000, 10:08:00.157
151, 8.39, -1.35, 0.00, 0.00, 0.000, 0.000, 0.000, 10:08:00.172
152, 13.40, -0.31, 0.00, 0.00, 0.000, 0.000, 0.000, 10:08:00.172
153, 16.08, -1.08, 0.00, 0.00, 0.000, 0.000, 0.000, 10:08:00.187
154, 8.23, 2.64, 0.00, 0.00, 0.000, 0.000, 0.000, 10:08:00.187
155, 8.25, 6.54, 0.00, 0.00, 0.000, 0.000, 0.000, 10:08:00.188
156, 12.88, 1.97, 0.00, 0.00, 0.000, 0.000, 0.000, 10:08:00.188
157, 17.39, -3.42, 0.00, 0.00, 0.000, 0.000, 0.000, 10:08:00.203
158, 9.82, -0.02, 0.00, 0.00, 0.000, 0.000, 0.000, 10:08:00.203
159, 8.77, -0.92, 0.00, 0.00, 0.000, 0.000, 0.000, 10:08:00.217
160, 17.22, -0.36, 0.00, 0.00, 0.000, 0.000, 0.000, 10:08:00.217
161, 15.65, -5.40, 0.00, 0.00, 0.000, 0.000, 0.000, 10:08:00.217
162, 11.33, 0.68, 0.00, 0.00, 0.000, 0.000, 0.000, 10:08:00.218
163, 12.66, 1.43, 0.00, 0.00, 0.000, 0.000, 0.000, 10:08:00.232
164, 16.05, 1.53, 0.00, 0.00, 0.000, 0.000, 0.000, 10:08:00.232
165, 15.67, -4.53, 0.00, 0.00, 0.000, 0.000, 0.000, 10:08:00.247
166, 10.47, 0.27, 0.00, 0.00, 0.000, 0.000, 0.000, 10:08:00.247
167, 11.60, 2.93, 0.00, 0.00, 0.000, 0.000, 0.000, 10:08:00.247
168, 15.50, 0.03, 0.00, 0.00, 0.000, 0.000, 0.000, 10:08:00.247
169, 17.72, -1.96, 0.00, 0.00, 0.000, 0.000, 0.000, 10:08:00.313
170, 8.63, 2.98, 0.00, 0.00, 0.000, 0.000, 0.000, 10:08:00.313
171, 10.25, -0.04, 0.00, 0.00, 0.000, 0.000, 0.000, 10:08:00.314
172, 16.20, 1.18, 0.00, 0.00, 0.000, 0.000, 0.000, 10:08:00.314
173, 13.99, 0.38, 0.00, 0.00, 0.000, 0.000, 0.000, 10:08:00.314
174, 8.60, -2.83, 0.00, 0.00, 0.000, 0.000, 0.000, 10:08:00.314
175, 8.10, 2.36, 0.00, 0.00, 0.000, 0.000, 0.000, 10:08:00.314
176, 14.17, 5.45, 0.00, 0.00, 0.000, 0.000, 0.000, 10:08:00.314
177, 16.21, -3.56, 0.00, 0.00, 0.000, 0.000, 0.000, 10:08:00.322
178, 8.98, 1.75, 0.00, 0.00, 0.000, 0.000, 0.000, 10:08:00.322
179, 11.81, 2.92, 0.00, 0.00, 0.000, 0.000, 0.000, 10:08:00.323
180, 14.97, 2.49, 0.00, 0.00, 0.000, 0.000, 0.000, 10:08:00.323
181, 14.42, -2.80, 0.00, 0.00, 0.000, 0.000, 0.000, 10:08:00.324
182, 9.56, 2.35, 0.00, 0.00, 0.000, 0.000, 0.000, 10:08:00.324
183, 10.75, -3.03, 0.00, 0.00, 0.000, 0.000, 0.000, 10:08:00.324
184, 13.88, 1.61, 0.00, 0.00, 0.000, 0.000, 0.000, 10:08:00.324
185, 15.98, -3.98, 0.00, 0.00, 0.000, 0.000, 0.000, 10:08:00.337
186, 9.76, -3.75, 0.00, 0.00, 0.000, 0.000, 0.000, 10:08:00.337
187, 10.74, 1.20, 0.00, 0.00, 0.000, 0.000, 0.000, 10:08:00.355
188, 15.71, 3.46, 0.00, 0.00, 0.000, 0.000, 0.000, 10:08:00.355
189, 18.15, -1.78, 0.00, 0.00, 0.000, 0.000, 0.000, 10:08:00.367
190, 12.82, 1.85, 0.00, 0.00, 0.000, 0.000, 0.000, 10:08:00.367
191, 12.94, 6.81, 0.00, 0.00, 0.000, 0.000, 0.000, 10:08:00.368
192, 17.36, 2.89, 0.00, 0.00, 0.000, 0.000, 0.000, 10:08:00.368
193, 13.04, -6.06, 0.00, 0.00, 0.000, 0.000, 0.000, 10:08:00.382
194, 10.98, 0.70, 0.00, 0.00, 0.000, 0.000, 0.000, 10:08:00.382
195, 13.91, 2.62, 0.00, 0.00, 0.000, 0.000, 0.000, 10:08:00.412
196, 15.14, 4.38, 0.00, 0.00, 0.000, 0.000, 0.000, 10:08:00.412
197, 16.38, 0.66, 0.00, 0.00, 0.000, 0.000, 0.000, 10:08:00.412
198, 12.29, 2.28, 0.00, 0.00, 0.000, 0.000, 0.000, 10:08:00.412
199, 10.35, 0.65, 0.00, 0.00, 0.000, 0.000, 0.000, 10:08:00.413
200, 17.63, 3.14, 0.00, 0.00, 0.000, 0.000, 0.000, 10:08:00.413
0, 16.09, -2.38, 0.00, 0.00, 0.000, 0.000, 0.000, 10:08:00.415
1, 11.13, -1.22, 0.00, 0.00, 0.000, 0.000, 0.000, 10:08:00.428
2, 12.85, 4.20, 0.00, 0.00, 0.000, 0.000, 0.000, 10:08:00.428
3, 16.91, 0.65, 0.00, 0.00, 0.000, 0.000, 0.000, 10:08:00.442
4, 15.42, -2.87, 0.00, 0.00, 0.000, 0.000, 0.000, 10:08:00.442
5, 9.30, -1.52, 0.00, 0.00, 0.000, 0.000, 0.000, 10:08:00.442
6, 9.89, 2.06, 0.00, 0.00, 0.000, 0.000, 0.000, 10:08:00.442
7, 12.29, 2.75, 0.00, 0.00, 0.000, 0.000, 0.000, 10:08:00.457
8, 15.45, -0.36, 0.00, 0.00, 0.000, 0.000, 0.000, 10:08:00.457
9, 11.23, -0.58, 0.00, 0.00, 0.000, 0.000, 0.000, 10:08:00.471
10, 12.10, -2.52, 0.00, 0.00, 0.000, 0.000, 0.000, 10:08:00.472
11, 12.84, 0.00, 0.00, 0.00, 0.000, 0.000, 0.000, 10:08:00.472
12, 14.84, 0.50, 0.00, 0.00, 0.000, 0.000, 0.000, 10:08:00.472
13, 11.16, -1.09, 0.00, 0.00, 0.000, 0.000, 0.000, 10:08:00.502
14, 7.59, 4.14, 0.00, 0.00, 0.000, 0.000, 0.000, 10:08:00.503
15, 12.35, -2.74, 0.00, 0.00, 0.000, 0.000, 0.000, 10:08:00.503
16, 14.54, -5.28, 0.00, 0.00, 0.000, 0.000, 0.000, 10:08:00.503
17, 8.98, -0.07, 0.00, 0.00, 0.000, 0.000, 0.000, 10:08:00.503
18, 9.19, -1.83, 0.00, 0.00, 0.000, 0.000, 0.000, 10:08:00.503
19, 14.42, 1.27, 0.00, 0.00, 0.000, 0.000, 0.000, 10:08:00.517
20, 13.73, 0.88, 0.00, 0.00, 0.000, 0.000, 0.000, 10:08:00.517
21, 10.31, -3.74, 0.00, 0.00, 0.000, 0.000, 0.000, 10:08:00.532
22, 10.26, 1.73, 0.00, 0.00, 0.000, 0.000, 0.000, 10:08:00.532
23, 15.43, 2.42, 0.00, 0.00, 0.000, 0.000, 0.000, 10:08:00.533
24, 17.44, -4.86, 0.00, 0.00, 0.000, 0.000, 0.000, 10:08:00.533
25, 12.12, -1.81, 0.00, 0.00, 0.000, 0.000, 0.000, 10:08:00.548
26, 9.82, 3.99, 0.00, 0.00, 0.000, 0.000, 0.000, 10:08:00.548
27, 15.66, 2.29, 0.00, 0.00, 0.000, 0.000, 0.000, 10:08:00.562
28, 15.67, -2.12, 0.00, 0.00, 0.000, 0.000, 0.000, 10:08:00.563
29, 8.90, -0.52, 0.00, 0.00, 0.000, 0.000, 0.000, 10:08:00.563
30, 8.55, -2.46, 0.00, 0.00, 0.000, 0.000, 0.000, 10:08:00.563
31, 13.15, 0.93, 0.00, 0.00, 0.000, 0.000, 0.000, 10:08:00.592
32, 13.71, -1.62, 0.00, 0.00, 0.000, 0.000, 0.000, 10:08:00.593
33, 14.62, -2.03, 0.00, 0.00, 0.000, 0.000, 0.000, 10:08:00.593
34, 8.17, -0.43, 0.00, 0.00, 0.000, 0.000, 0.000, 10:08:00.593
35, 16.87, 1.60, 0.00, 0.00, 0.000, 0.000, 0.000, 10:08:00.593
36, 17.29, -3.64, 0.00, 0.00, 0.000, 0.000, 0.000, 10:08:00.593
37, 10.86, -2.28, 0.00, 0.00, 0.000, 0.000, 0.000, 10:08:00.607
38, 11.95, 2.10, 0.00, 0.00, 0.000, 0.000, 0.000, 10:08:00.607
39, 14.31, 1.16, 0.00, 0.00, 0.000, 0.000, 0.000, 10:08:00.622
40, 18.07, -3.84, 0.00, 0.00, 0.000, 0.000, 0.000, 10:08:00.622
41, 10.69, -0.57, 0.00, 0.00, 0.000, 0.000, 0.000, 10:08:00.622
42, 10.33, -2.80, 0.00, 0.00, 0.000, 0.000, 0.000, 10:08:00.622
43, 14.74, -1.63, 0.00, 0.00, 0.000, 0.000, 0.000, 10:08:00.637
44, 15.23, -0.92, 0.00, 0.00, 0.000, 0.000, 0.000, 10:08:00.637
45, 9.22, -0.24, 0.00, 0.00, 0.000, 0.000, 0.000, 10:08:00.652
46, 12.39, 1.94, 0.00, 0.00, 0.000, 0.000, 0.000, 10:08:00.652
47, 16.93, 3.17, 0.00, 0.00, 0.000, 0.000, 0.000, 10:08:00.652
48, 16.73, -1.26, 0.00, 0.00, 0.000, 0.000, 0.000, 10:08:00.652
49, 12.75, -0.28, 0.00, 0.00, 0.000, 0.000, 0.000, 10:08:00.667
50, 10.38, 5.86, 0.00, 0.00, 0.000, 0.000, 0.000, 10:08:00.667
51, 14.99, 4.55, 0.00, 0.00, 0.000, 0.000, 0.000, 10:08:00.683
52, 11.72, -2.78, 0.00, 0.00, 0.000, 0.000, 0.000, 10:08:00.683
53, 12.91, -1.25, 0.00, 0.00, 0.000, 0.000, 0.000, 10:08:00.683
54, 14.67, 2.81, 0.00, 0.00, 0.000, 0.000, 0.000, 10:08:00.683
55, 15.99, -0.50, 0.00, 0.00, 0.000, 0.000, 0.000, 10:08:00.697
56, 15.58, -2.45, 0.00, 0.00, 0.000, 0.000, 0.000, 10:08:00.697
57, 12.91, -0.60, 0.00, 0.00, 0.000, 0.000, 0.000, 10:08:00.712
58, 9.46, 2.62, 0.00, 0.00, 0.000, 0.000, 0.000, 10:08:00.712
59, 15.47, 4.17, 0.00, 0.00, 0.000, 0.000, 0.000, 10:08:00.713
60, 15.82, -0.89, 0.00, 0.00, 0.000, 0.000, 0.000, 10:08:00.713
61, 14.01, 0.45, 0.00, 0.00, 0.000, 0.000, 0.000, 10:08:00.728
62, 11.36, 8.55, 0.00, 0.00, 0.000, 0.000, 0.000, 10:08:00.728
63, 13.82, 1.51, 0.00, 0.00, 0.000, 0.000, 0.000, 10:08:00.741
64, 13.02, -5.47, 0.00, 0.00, 0.000, 0.000, 0.000, 10:08:00.741
65, 14.21, 2.35, 0.00, 0.00, 0.000, 0.000, 0.000, 10:08:00.742
66, 9.60, 1.25, 0.00, 0.00, 0.000, 0.000, 0.000, 10:08:00.742
67, 11.80, 1.32, 0.00, 0.00, 0.000, 0.000, 0.000, 10:08:00.757
68, 14.84, -0.86, 0.00, 0.00, 0.000, 0.000, 0.000, 10:08:00.758
69, 12.30, 2.08, 0.00, 0.00, 0.000, 0.000, 0.000, 10:08:00.772
70, 11.29, 6.53, 0.00, 0.00, 0.000, 0.000, 0.000, 10:08:00.772
71, 14.73, 5.29, 0.00, 0.00, 0.000, 0.000, 0.000, 10:08:00.772
72, 14.90, -4.98, 0.00, 0.00, 0.000, 0.000, 0.000, 10:08:00.772
73, 9.76, -0.25, 0.00, 0.00, 0.000, 0.000, 0.000, 10:08:00.787
74, 9.96, 7.85, 0.00, 0.00, 0.000, 0.000, 0.000, 10:08:00.787
75, 12.56, 6.07, 0.00, 0.00, 0.000, 0.000, 0.000, 10:08:00.802
76, 12.97, -2.72, 0.00, 0.00, 0.000, 0.000, 0.000, 10:08:00.802
77, 10.00, 0.04, 0.00, 0.00, 0.000, 0.000, 0.000, 10:08:00.803
78, 7.56, 1.67, 0.00, 0.00, 0.000, 0.000, 0.000, 10:08:00.803
79, 14.74, 1.02, 0.00, 0.00, 0.000, 0.000, 0.000, 10:08:00.817
80, 11.48, 1.12, 0.00, 0.00, 0.000, 0.000, 0.000, 10:08:00.817
81, 9.32, 1.34, 0.00, 0.00, 0.000, 0.000, 0.000, 10:08:00.832
82, 7.75, 2.24, 0.00, 0.00, 0.000, 0.000, 0.000, 10:08:00.833
83, 14.19, 0.68, 0.00, 0.00, 0.000, 0.000, 0.000, 10:08:00.833
84, 13.09, -3.88, 0.00, 0.00, 0.000, 0.000, 0.000, 10:08:00.833
85, 12.24, 1.21, 0.00, 0.00, 0.000, 0.000, 0.000, 10:08:00.847
86, 10.48, 2.04, 0.00, 0.00, 0.000, 0.000, 0.000, 10:08:00.847
87, 16.52, 0.28, 0.00, 0.00, 0.000, 0.000, 0.000, 10:08:00.862
88, 16.19, -4.83, 0.00, 0.00, 0.000, 0.000, 0.000, 10:08:00.862
89, 11.69, -0.08, 0.00, 0.00, 0.000, 0.000, 0.000, 10:08:00.877
90, 8.92, 1.72, 0.00, 0.00, 0.000, 0.000, 0.000, 10:08:00.877
91, 14.60, 0.32, 0.00, 0.00, 0.000, 0.000, 0.000, 10:08:00.877
92, 14.57, -1.44, 0.00, 0.00, 0.000, 0.000, 0.000, 10:08:00.877
93, 10.21, -3.37, 0.00, 0.00, 0.000, 0.000, 0.000, 10:08:00.892
94, 10.51, -2.13, 0.00, 0.00, 0.000, 0.000, 0.000, 10:08:00.892
95, 16.12, 3.01, 0.00, 0.00, 0.000, 0.000, 0.000, 10:08:00.892
96, 12.62, -0.87, 0.00, 0.00, 0.000, 0.000, 0.000, 10:08:00.892
97, 7.53, -0.59, 0.00, 0.00, 0.000, 0.000, 0.000, 10:08:00.907
98, 8.57, 2.60, 0.00, 0.00, 0.000, 0.000, 0.000, 10:08:00.907
99, 11.84, 2.46, 0.00, 0.00, 0.000, 0.000, 0.000, 10:08:00.922
100, 13.05, -1.96, 0.00, 0.00, 0.000, 0.000, 0.000, 10:08:00.922
101, 6.63, 0.89, 0.00, 0.00, 0.000, 0.000, 0.000, 10:08:00.922
102, 9.61, -1.26, 0.00, 0.00, 0.000, 0.000, 0.000, 10:08:00.922
103, 13.09, -3.43, 0.00, 0.00, 0.000, 0.000, 0.000, 10:08:00.937
104, 13.33, 0.41, 0.00, 0.00, 0.000, 0.000, 0.000, 10:08:00.938
105, 8.53, -1.19, 0.00, 0.00, 0.000, 0.000, 0.000, 10:08:00.967
106, 9.05, -4.42, 0.00, 0.00, 0.000, 0.000, 0.000, 10:08:00.967
107, 13.72, 1.10, 0.00, 0.00, 0.000, 0.000, 0.000, 10:08:00.967
108, 12.39, -5.45, 0.00, 0.00, 0.000, 0.000, 0.000, 10:08:00.967
109, 10.48, -3.76, 0.00, 0.00, 0.000, 0.000, 0.000, 10:08:00.967
110, 9.60, 1.22, 0.00, 0.00, 0.000, 0.000, 0.000, 10:08:00.967
111, 12.41, -0.67, 0.00, 0.00, 0.000, 0.000, 0.000, 10:08:00.969
112, 10.86, 0.69, 0.00, 0.00, 0.000, 0.000, 0.000, 10:08:00.969
113, 13.25, 0.70, 0.00, 0.00, 0.000, 0.000, 0.000, 10:08:00.982
114, 11.98, -0.42, 0.00, 0.00, 0.000, 0.000, 0.000, 10:08:00.982
115, 13.48, -0.60, 0.00, 0.00, 0.000, 0.000, 0.000, 10:08:00.997
116, 15.75, -6.79, 0.00, 0.00, 0.000, 0.000, 0.000, 10:08:00.998
117, 12.95, -3.33, 0.00, 0.00, 0.000, 0.000, 0.000, 10:08:01.012
118, 11.08, -0.42, 0.00, 0.00, 0.000, 0.000, 0.000, 10:08:01.012
119, 15.82, 1.80, 0.00, 0.00, 0.000, 0.000, 0.000, 10:08:01.012
120, 13.81, -6.08, 0.00, 0.00, 0.000, 0.000, 0.000, 10:08:01.012
121, 12.24, -3.68, 0.00, 0.00, 0.000, 0.000, 0.000, 10:08:01.027
122, 10.46, 4.49, 0.00, 0.00, 0.000, 0.000, 0.000, 10:08:01.027
123, 15.16, 3.64, 0.00, 0.00, 0.000, 0.000, 0.000, 10:08:01.042
124, 16.80, -6.21, 0.00, 0.00, 0.000, 0.000, 0.000, 10:08:01.042
125, 10.79, -1.69, 0.00, 0.00, 0.000, 0.000, 0.000, 10:08:01.042
126, 13.94, -1.06, 0.00, 0.00, 0.000, 0.000, 0.000, 10:08:01.043
127, 18.44, -2.89, 0.00, 0.00, 0.000, 0.000, 0.000, 10:08:01.063
128, 16.28, 0.25, 0.00, 0.00, 0.000, 0.000, 0.000, 10:08:01.063
129, 9.01, 1.95, 0.00, 0.00, 0.000, 0.000, 0.000, 10:08:01.071
130, 10.76, 3.61, 0.00, 0.00, 0.000, 0.000, 0.000, 10:08:01.072
131, 18.14, 7.73, 0.00, 0.00, 0.000, 0.000, 0.000, 10:08:01.072
132, 18.09, -1.36, 0.00, 0.00, 0.000, 0.000, 0.000, 10:08:01.072
133, 11.72, -3.13, 0.00, 0.00, 0.000, 0.000, 0.000, 10:08:01.087
134, 10.69, 4.25, 0.00, 0.00, 0.000, 0.000, 0.000, 10:08:01.087
135, 14.61, 3.40, 0.00, 0.00, 0.000, 0.000, 0.000, 10:08:01.101
136, 15.17, -3.77, 0.00, 0.00, 0.000, 0.000, 0.000, 10:08:01.101
137, 7.53, 2.89, 0.00, 0.00, 0.000, 0.000, 0.000, 10:08:01.102
138, 11.45, 5.09, 0.00, 0.00, 0.000, 0.000, 0.000, 10:08:01.102
139, 16.08, 5.70, 0.00, 0.00, 0.000, 0.000, 0.000, 10:08:01.117
140, 15.39, -0.82, 0.00, 0.00, 0.000, 0.000, 0.000, 10:08:01.117
141, 11.22, 0.08, 0.00, 0.00, 0.000, 0.000, 0.000, 10:08:01.132
142, 13.91, 4.70, 0.00, 0.00, 0.000, 0.000, 0.000, 10:08:01.132
143, 17.96, 1.81, 0.00, 0.00, 0.000, 0.000, 0.000, 10:08:01.132
144, 16.48, -5.61, 0.00, 0.00, 0.000, 0.000, 0.000, 10:08:01.132
145, 12.14, -2.04, 0.00, 0.00, 0.000, 0.000, 0.000, 10:08:01.147
146, 12.56, 7.90, 0.00, 0.00, 0.000, 0.000, 0.000, 10:08:01.147
147, 15.22, 5.76, 0.00, 0.00, 0.000, 0.000, 0.000, 10:08:01.162
148, 15.23, -2.89, 0.00, 0.00, 0.000, 0.000, 0.000, 10:08:01.162
149, 11.17, 3.43, 0.00, 0.00, 0.000, 0.000, 0.000, 10:08:01.162
150, 13.16, 2.51, 0.00, 0.00, 0.000, 0.000, 0.000, 10:08:01.162
151, 16.73, 1.31, 0.00, 0.00, 0.000, 0.000, 0.000, 10:08:01.177
152, 14.67, -0.33, 0.00, 0.00, 0.000, 0.000, 0.000, 10:08:01.177
153, 12.70, -0.45, 0.00, 0.00, 0.000, 0.000, 0.000, 10:08:01.192
154, 12.47, 0.85, 0.00, 0.00, 0.000, 0.000, 0.000, 10:08:01.192
155, 18.09, 4.80, 0.00, 0.00, 0.000, 0.000, 0.000, 10:08:01.193
156, 17.04, -6.54, 0.00, 0.00, 0.000, 0.000, 0.000, 10:08:01.193
157, 11.59, 0.10, 0.00, 0.00, 0.000, 0.000, 0.000, 10:08:01.207
158, 9.22, 10.50, 0.00, 0.00, 0.000, 0.000, 0.000, 10:08:01.207
159, 14.91, 2.75, 0.00, 0.00, 0.000, 0.000, 0.000, 10:08:01.222
160, 17.09, -5.27, 0.00, 0.00, 0.000, 0.000, 0.000, 10:08:01.222
161, 9.81, 3.27, 0.00, 0.00, 0.000, 0.000, 0.000, 10:08:01.222
162, 9.24, 4.05, 0.00, 0.00, 0.000, 0.000, 0.000, 10:08:01.222
163, 13.69, 8.97, 0.00, 0.00, 0.000, 0.000, 0.000, 10:08:01.237
164, 10.40, -1.44, 0.00, 0.00, 0.000, 0.000, 0.000, 10:08:01.237
165, 5.99, -1.43, 0.00, 0.00, 0.000, 0.000, 0.000, 10:08:01.252
166, 10.18, 0.30, 0.00, 0.00, 0.000, 0.000, 0.000, 10:08:01.252
167, 14.56, 3.15, 0.00, 0.00, 0.000, 0.000, 0.000, 10:08:01.252
168, 16.08, -2.98, 0.00, 0.00, 0.000, 0.000, 0.000, 10:08:01.252
169, 9.51, 0.60, 0.00, 0.00, 0.000, 0.000, 0.000, 10:08:01.267
170, 10.62, 4.82, 0.00, 0.00, 0.000, 0.000, 0.000, 10:08:01.267
171, 13.45, 2.85, 0.00, 0.00, 0.000, 0.000, 0.000, 10:08:01.282
172, 13.31, -4.93, 0.00, 0.00, 0.000, 0.000, 0.000, 10:08:01.282
173, 10.46, -2.94, 0.00, 0.00, 0.000, 0.000, 0.000, 10:08:01.282
174, 12.68, -1.40, 0.00, 0.00, 0.000, 0.000, 0.000, 10:08:01.282
175, 17.79, -0.38, 0.00, 0.00, 0.000, 0.000, 0.000, 10:08:01.297
176, 15.40, -1.94, 0.00, 0.00, 0.000, 0.000, 0.000, 10:08:01.298
177, 8.74, 0.47, 0.00, 0.00, 0.000, 0.000, 0.000, 10:08:01.312
178, 9.45, 3.87, 0.00, 0.00, 0.000, 0.000, 0.000, 10:08:01.312
179, 15.09, 3.23, 0.00, 0.00, 0.000, 0.000, 0.000, 10:08:01.312
180, 15.43, -3.11, 0.00, 0.00, 0.000, 0.000, 0.000, 10:08:01.313
181, 10.83, -2.99, 0.00, 0.00, 0.000, 0.000, 0.000, 10:08:01.327
182, 9.56, 4.43, 0.00, 0.00, 0.000, 0.000, 0.000, 10:08:01.327
183, 16.22, -1.23, 0.00, 0.00, 0.000, 0.000, 0.000, 10:08:01.342
184, 14.82, -2.56, 0.00, 0.00, 0.000, 0.000, 0.000, 10:08:01.342
185, 9.76, 2.49, 0.00, 0.00, 0.000, 0.000, 0.000, 10:08:01.342
186, 10.41, 0.59, 0.00, 0.00, 0.000, 0.000, 0.000, 10:08:01.342
187, 13.07, 2.80, 0.00, 0.00, 0.000, 0.000, 0.000, 10:08:01.357
188, 12.88, 0.67, 0.00, 0.00, 0.000, 0.000, 0.000, 10:08:01.357
189, 11.07, 2.36, 0.00, 0.00, 0.000, 0.000, 0.000, 10:08:01.372
190, 10.13, 3.09, 0.00, 0.00, 0.000, 0.000, 0.000, 10:08:01.372
191, 13.01, 3.97, 0.00, 0.00, 0.000, 0.000, 0.000, 10:08:01.373
192, 13.48, -2.06, 0.00, 0.00, 0.000, 0.000, 0.000, 10:08:01.373
193, 9.40, -0.74, 0.00, 0.00, 0.000, 0.000, 0.000, 10:08:01.387
194, 8.64, 2.73, 0.00, 0.00, 0.000, 0.000, 0.000, 10:08:01.387
195, 17.24, -1.58, 0.00, 0.00, 0.000, 0.000, 0.000, 10:08:01.403
196, 16.03, -2.25, 0.00, 0.00, 0.000, 0.000, 0.000, 10:08:01.403
197, 9.48, 2.66, 0.00, 0.00, 0.000, 0.000, 0.000, 10:08:01.403
198, 10.89, -0.39, 0.00, 0.00, 0.000, 0.000, 0.000, 10:08:01.403
199, 14.34, -1.76, 0.00, 0.00, 0.000, 0.000, 0.000, 10:08:01.418
200, 14.54, -3.14, 0.00, 0.00, 0.000, 0.000, 0.000, 10:08:01.418
0, 9.85, -1.45, 0.00, 0.00, 0.000, 0.000, 0.000, 10:08:01.418
1, 8.89, 1.30, 0.00, 0.00, 0.000, 0.000, 0.000, 10:08:01.432
2, 13.47, 4.51, 0.00, 0.00, 0.000, 0.000, 0.000, 10:08:01.432
3, 15.34, -3.77, 0.00, 0.00, 0.000, 0.000, 0.000, 10:08:01.447
4, 9.68, 1.86, 0.00, 0.00, 0.000, 0.000, 0.000, 10:08:01.447
5, 11.40, 4.50, 0.00, 0.00, 0.000, 0.000, 0.000, 10:08:01.447
6, 14.95, -0.12, 0.00, 0.00, 0.000, 0.000, 0.000, 10:08:01.447
7, 14.25, -3.40, 0.00, 0.00, 0.000, 0.000, 0.000, 10:08:01.462
8, 9.50, 2.59, 0.00, 0.00, 0.000, 0.000, 0.000, 10:08:01.462
9, 11.79, 4.56, 0.00, 0.00, 0.000, 0.000, 0.000, 10:08:01.477
10, 16.06, 0.09, 0.00, 0.00, 0.000, 0.000, 0.000, 10:08:01.477
11, 14.28, 2.42, 0.00, 0.00, 0.000, 0.000, 0.000, 10:08:01.478
12, 10.19, 0.56, 0.00, 0.00, 0.000, 0.000, 0.000, 10:08:01.478
13, 11.50, 2.05, 0.00, 0.00, 0.000, 0.000, 0.000, 10:08:01.499
14, 13.95, 4.05, 0.00, 0.00, 0.000, 0.000, 0.000, 10:08:01.499
15, 15.50, -0.17, 0.00, 0.00, 0.000, 0.000, 0.000, 10:08:01.522
16, 9.69, 1.73, 0.00, 0.00, 0.000, 0.000, 0.000, 10:08:01.522
17, 11.79, 7.11, 0.00, 0.00, 0.000, 0.000, 0.000, 10:08:01.522
18, 15.26, 9.50, 0.00, 0.00, 0.000, 0.000, 0.000, 10:08:01.522
19, 11.62, 0.85, 0.00, 0.00, 0.000, 0.000, 0.000, 10:08:01.523
20, 7.86, 5.56, 0.00, 0.00, 0.000, 0.000, 0.000, 10:08:01.523
21, 12.92, 4.21, 0.00, 0.00, 0.000, 0.000, 0.000, 10:08:01.524
22, 16.10, 4.45, 0.00, 0.00, 0.000, 0.000, 0.000, 10:08:01.524
23, 13.15, 1.35, 0.00, 0.00, 0.000, 0.000, 0.000, 10:08:01.538
24, 11.86, -2.29, 0.00, 0.00, 0.000, 0.000, 0.000, 10:08:01.538
25, 9.54, 1.32, 0.00, 0.00, 0.000, 0.000, 0.000, 10:08:01.552
26, 16.19, 5.25, 0.00, 0.00, 0.000, 0.000, 0.000, 10:08:01.552
27, 14.88, -3.20, 0.00, 0.00, 0.000, 0.000, 0.000, 10:08:01.567
28, 12.27, -0.83, 0.00, 0.00, 0.000, 0.000, 0.000, 10:08:01.567
29, 11.08, 4.34, 0.00, 0.00, 0.000, 0.000, 0.000, 10:08:01.567
30, 16.43, 3.78, 0.00, 0.00, 0.000, 0.000, 0.000, 10:08:01.567
31, 15.63, 0.72, 0.00, 0.00, 0.000, 0.000, 0.000, 10:08:01.582
32, 8.58, 1.83, 0.00, 0.00, 0.000, 0.000, 0.000, 10:08:01.582
33, 10.44, 1.19, 0.00, 0.00, 0.000, 0.000, 0.000, 10:08:01.597
34, 13.99, 0.71, 0.00, 0.00, 0.000, 0.000, 0.000, 10:08:01.597
35, 14.71, 0.31, 0.00, 0.00, 0.000, 0.000, 0.000, 10:08:01.597
36, 10.47, 0.73, 0.00, 0.00, 0.000, 0.000, 0.000, 10:08:01.597
37, 10.35, 2.20, 0.00, 0.00, 0.000, 0.000, 0.000, 10:08:01.612
38, 14.99, 2.45, 0.00, 0.00, 0.000, 0.000, 0.000, 10:08:01.612
39, 14.72, -2.66, 0.00, 0.00, 0.000, 0.000, 0.000, 10:08:01.627
40, 10.28, -0.72, 0.00, 0.00, 0.000, 0.000, 0.000, 10:08:01.628
41, 8.82, 6.14, 0.00, 0.00, 0.000, 0.000, 0.000, 10:08:01.628
42, 13.75, 4.78, 0.00, 0.00, 0.000, 0.000, 0.000, 10:08:01.628
43, 11.38, -1.12, 0.00, 0.00, 0.000, 0.000, 0.000, 10:08:01.642
44, 8.70, 1.10, 0.00, 0.00, 0.000, 0.000, 0.000, 10:08:01.642
45, 9.83, 2.98, 0.00, 0.00, 0.000, 0.000, 0.000, 10:08:01.657
46, 15.97, 3.21, 0.00, 0.00, 0.000, 0.000, 0.000, 10:08:01.658
47, 16.11, -2.67, 0.00, 0.00, 0.000, 0.000, 0.000, 10:08:01.658
48, 10.65, -3.24, 0.00, 0.00, 0.000, 0.000, 0.000, 10:08:01.658
49, 11.05, 2.57, 0.00, 0.00, 0.000, 0.000, 0.000, 10:08:01.672
50, 13.47, 3.79, 0.00, 0.00, 0.000, 0.000, 0.000, 10:08:01.672
51, 15.13, -0.04, 0.00, 0.00, 0.000, 0.000, 0.000, 10:08:01.687
52, 8.49, -1.29, 0.00, 0.00, 0.000, 0.000, 0.000, 10:08:01.687
53, 10.14, 1.70, 0.00, 0.00, 0.000, 0.000, 0.000, 10:08:01.687
54, 14.56, 1.43, 0.00, 0.00, 0.000, 0.000, 0.000, 10:08:01.687
55, 15.23, -6.59, 0.00, 0.00, 0.000, 0.000, 0.000, 10:08:01.702
56, 9.75, 0.94, 0.00, 0.00, 0.000, 0.000, 0.000, 10:08:01.702
57, 12.59, 1.75, 0.00, 0.00, 0.000, 0.000, 0.000, 10:08:01.717
58, 14.38, 3.85, 0.00, 0.00, 0.000, 0.000, 0.000, 10:08:01.717
59, 13.88, 0.90, 0.00, 0.00, 0.000, 0.000, 0.000, 10:08:01.717
60, 9.54, -2.89, 0.00, 0.00, 0.000, 0.000, 0.000, 10:08:01.717
61, 7.89, -0.67, 0.00, 0.00, 0.000, 0.000, 0.000, 10:08:01.732
62, 13.20, 2.70, 0.00, 0.00, 0.000, 0.000, 0.000, 10:08:01.732
63, 13.53, -1.16, 0.00, 0.00, 0.000, 0.000, 0.000, 10:08:01.747
64, 10.08, 1.02, 0.00, 0.00, 0.000, 0.000, 0.000, 10:08:01.747
65, 11.20, 1.41, 0.00, 0.00, 0.000, 0.000, 0.000, 10:08:01.748
66, 15.09, -3.36, 0.00, 0.00, 0.000, 0.000, 0.000, 10:08:01.748
67, 13.72, -1.56, 0.00, 0.00, 0.000, 0.000, 0.000, 10:08:01.762
68, 6.62, -0.30, 0.00, 0.00, 0.000, 0.000, 0.000, 10:08:01.763
69, 8.50, -2.58, 0.00, 0.00, 0.000, 0.000, 0.000, 10:08:01.777
70, 14.31, -2.75, 0.00, 0.00, 0.000, 0.000, 0.000, 10:08:01.778
71, 13.64, -1.46, 0.00, 0.00, 0.000, 0.000, 0.000, 10:08:01.778
72, 10.74, 1.06, 0.00, 0.00, 0.000, 0.000, 0.000, 10:08:01.778
73, 10.39, -0.88, 0.00, 0.00, 0.000, 0.000, 0.000, 10:08:01.793
74, 14.88, 2.39, 0.00, 0.00, 0.000, 0.000, 0.000, 10:08:01.793
75, 17.62, -4.46, 0.00, 0.00, 0.000, 0.000, 0.000, 10:08:01.807
76, 8.58, -1.36, 0.00, 0.00, 0.000, 0.000, 0.000, 10:08:01.807
77, 7.98, 2.49, 0.00, 0.00, 0.000, 0.000, 0.000, 10:08:01.808
78, 14.05, 0.77, 0.00, 0.00, 0.000, 0.000, 0.000, 10:08:01.808
79, 14.91, -3.44, 0.00, 0.00, 0.000, 0.000, 0.000, 10:08:01.822
80, 7.32, 0.44, 0.00, 0.00, 0.000, 0.000, 0.000, 10:08:01.822
81, 9.53, 0.93, 0.00, 0.00, 0.000, 0.000, 0.000, 10:08:01.838
82, 14.45, 2.99, 0.00, 0.00, 0.000, 0.000, 0.000, 10:08:01.838
83, 11.91, -1.10, 0.00, 0.00, 0.000, 0.000, 0.000, 10:08:01.838
84, 6.56, 0.34, 0.00, 0.00, 0.000, 0.000, 0.000, 10:08:01.838
85, 8.97, -1.20, 0.00, 0.00, 0.000, 0.000, 0.000, 10:08:01.852
86, 15.11, 2.27, 0.00, 0.00, 0.000, 0.000, 0.000, 10:08:01.852
87, 14.55, -4.12, 0.00, 0.00, 0.000, 0.000, 0.000, 10:08:01.867
88, 8.70, -3.67, 0.00, 0.00, 0.000, 0.000, 0.000, 10:08:01.867
89, 13.27, 4.56, 0.00, 0.00, 0.000, 0.000, 0.000, 10:08:01.867
90, 14.70, -0.65, 0.00, 0.00, 0.000, 0.000, 0.000, 10:08:01.868
91, 14.86, -2.26, 0.00, 0.00, 0.000, 0.000, 0.000, 10:08:01.883
92, 11.18, 2.30, 0.00, 0.00, 0.000, 0.000, 0.000, 10:08:01.883
93, 13.23, 0.98, 0.00, 0.00, 0.000, 0.000, 0.000, 10:08:01.898
94, 16.16, -1.42, 0.00, 0.00, 0.000, 0.000, 0.000, 10:08:01.898
95, 17.53, -3.79, 0.00, 0.00, 0.000, 0.000, 0.000, 10:08:01.898
96, 11.27, -0.47, 0.00, 0.00, 0.000, 0.000, 0.000, 10:08:01.898
97, 9.87, 3.24, 0.00, 0.00, 0.000, 0.000, 0.000, 10:08:01.919
98, 17.66, 5.61, 0.00, 0.00, 0.000, 0.000, 0.000, 10:08:01.919
99, 17.99, -3.80, 0.00, 0.00, 0.000, 0.000, 0.000, 10:08:01.927
100, 14.47, -0.80, 0.00, 0.00, 0.000, 0.000, 0.000, 10:08:01.927
101, 8.93, 5.47, 0.00, 0.00, 0.000, 0.000, 0.000, 10:08:01.927
102, 14.56, 4.06, 0.00, 0.00, 0.000, 0.000, 0.000, 10:08:01.927
103, 16.87, -2.41, 0.00, 0.00, 0.000, 0.000, 0.000, 10:08:01.942
104, 10.61, 3.89, 0.00, 0.00, 0.000, 0.000, 0.000, 10:08:01.942
105, 8.68, 3.27, 0.00, 0.00, 0.000, 0.000, 0.000, 10:08:01.957
106, 13.45, 3.16, 0.00, 0.00, 0.000, 0.000, 0.000, 10:08:01.959
107, 10.72, 2.19, 0.00, 0.00, 0.000, 0.000, 0.000, 10:08:01.959
108, 10.02, -1.58, 0.00, 0.00, 0.000, 0.000, 0.000, 10:08:01.959
109, 9.68, 2.38, 0.00, 0.00, 0.000, 0.000, 0.000, 10:08:01.972
110, 14.40, 4.21, 0.00, 0.00, 0.000, 0.000, 0.000, 10:08:01.972
111, 11.92, -3.59, 0.00, 0.00, 0.000, 0.000, 0.000, 10:08:01.987
112, 8.87, -3.13, 0.00, 0.00, 0.000, 0.000, 0.000, 10:08:01.987
113, 7.13, 2.02, 0.00, 0.00, 0.000, 0.000, 0.000, 10:08:01.987
114, 15.56, 0.09, 0.00, 0.00, 0.000, 0.000, 0.000, 10:08:01.987
115, 13.96, -5.51, 0.00, 0.00, 0.000, 0.000, 0.000, 10:08:02.002
116, 11.39, -0.23, 0.00, 0.00, 0.000, 0.000, 0.000, 10:08:02.002
117, 13.49, 0.10, 0.00, 0.00, 0.000, 0.000, 0.000, 10:08:02.017
118, 16.58, 0.18, 0.00, 0.00, 0.000, 0.000, 0.000, 10:08:02.017
119, 13.69, -1.11, 0.00, 0.00, 0.000, 0.000, 0.000, 10:08:02.017
120, 11.88, -3.35, 0.00, 0.00, 0.000, 0.000, 0.000, 10:08:02.017
121, 10.56, 0.89, 0.00, 0.00, 0.000, 0.000, 0.000, 10:08:02.032
122, 16.67, 3.30, 0.00, 0.00, 0.000, 0.000, 0.000, 10:08:02.032
123, 12.85, -2.63, 0.00, 0.00, 0.000, 0.000, 0.000, 10:08:02.048
124, 7.57, 0.54, 0.00, 0.00, 0.000, 0.000, 0.000, 10:08:02.048
125, 11.18, 6.87, 0.00, 0.00, 0.000, 0.000, 0.000, 10:08:02.048
126, 17.83, -0.38, 0.00, 0.00, 0.000, 0.000, 0.000, 10:08:02.048
127, 12.16, -3.70, 0.00, 0.00, 0.000, 0.000, 0.000, 10:08:02.062
128, 10.27, -2.00, 0.00, 0.00, 0.000, 0.000, 0.000, 10:08:02.062
129, 11.54, -4.86, 0.00, 0.00, 0.000, 0.000, 0.000, 10:08:02.078
130, 17.42, -4.70, 0.00, 0.00, 0.000, 0.000, 0.000, 10:08:02.078
131, 16.89, -3.35, 0.00, 0.00, 0.000, 0.000, 0.000, 10:08:02.078
132, 10.85, -0.87, 0.00, 0.00, 0.000, 0.000, 0.000, 10:08:02.078
133, 11.71, -1.49, 0.00, 0.00, 0.000, 0.000, 0.000, 10:08:02.093
134, 14.47, 3.65, 0.00, 0.00, 0.000, 0.000, 0.000, 10:08:02.093
135, 13.51, -0.19, 0.00, 0.00, 0.000, 0.000, 0.000, 10:08:02.107
136, 12.48, 0.24, 0.00, 0.00, 0.000, 0.000, 0.000, 10:08:02.107
137, 11.99, 4.69, 0.00, 0.00, 0.000, 0.000, 0.000, 10:08:02.108
138, 16.98, 0.01, 0.00, 0.00, 0.000, 0.000, 0.000, 10:08:02.108
139, 14.71, -1.77, 0.00, 0.00, 0.000, 0.000, 0.000, 10:08:02.122
140, 9.91, 0.78, 0.00, 0.00, 0.000, 0.000, 0.000, 10:08:02.122
141, 8.77, -1.08, 0.00, 0.00, 0.000, 0.000, 0.000, 10:08:02.137
142, 18.94, -3.51, 0.00, 0.00, 0.000, 0.000, 0.000, 10:08:02.137
143, 14.64, -3.24, 0.00, 0.00, 0.000, 0.000, 0.000, 10:08:02.138
144, 12.63, -0.65, 0.00, 0.00, 0.000, 0.000, 0.000, 10:08:02.138
145, 8.58, 0.21, 0.00, 0.00, 0.000, 0.000, 0.000, 10:08:02.153
146, 17.38, 1.05, 0.00, 0.00, 0.000, 0.000, 0.000, 10:08:02.154
147, 18.51, -2.27, 0.00, 0.00, 0.000, 0.000, 0.000, 10:08:02.167
148, 12.16, 0.04, 0.00, 0.00, 0.000, 0.000, 0.000, 10:08:02.167
149, 10.97, 3.58, 0.00, 0.00, 0.000, 0.000, 0.000, 10:08:02.167
150, 13.20, 3.24, 0.00, 0.00, 0.000, 0.000, 0.000, 10:08:02.167
151, 13.74, 1.14, 0.00, 0.00, 0.000, 0.000, 0.000, 10:08:02.182
152, 8.70, 0.62, 0.00, 0.00, 0.000, 0.000, 0.000, 10:08:02.182
153, 10.81, 2.74, 0.00, 0.00, 0.000, 0.000, 0.000, 10:08:02.197
154, 17.90, 3.60, 0.00, 0.00, 0.000, 0.000, 0.000, 10:08:02.197
155, 15.91, 1.36, 0.00, 0.00, 0.000, 0.000, 0.000, 10:08:02.197
156, 8.50, -0.89, 0.00, 0.00, 0.000, 0.000, 0.000, 10:08:02.197
157, 7.40, 4.04, 0.00, 0.00, 0.000, 0.000, 0.000, 10:08:02.212
158, 14.31, 3.13, 0.00, 0.00, 0.000, 0.000, 0.000, 10:08:02.212
159, 16.47, -2.08, 0.00, 0.00, 0.000, 0.000, 0.000, 10:08:02.227
160, 9.65, -0.97, 0.00, 0.00, 0.000, 0.000, 0.000, 10:08:02.227
161, 9.51, 3.58, 0.00, 0.00, 0.000, 0.000, 0.000, 10:08:02.227
162, 16.83, 1.59, 0.00, 0.00, 0.000, 0.000, 0.000, 10:08:02.227
163, 15.44, -4.60, 0.00, 0.00, 0.000, 0.000, 0.000, 10:08:02.242
164, 12.10, -0.02, 0.00, 0.00, 0.000, 0.000, 0.000, 10:08:02.243
165, 10.54, 4.52, 0.00, 0.00, 0.000, 0.000, 0.000, 10:08:02.257
166, 16.31, 2.72, 0.00, 0.00, 0.000, 0.000, 0.000, 10:08:02.257
167, 12.61, -4.27, 0.00, 0.00, 0.000, 0.000, 0.000, 10:08:02.257
168, 13.13, 0.35, 0.00, 0.00, 0.000, 0.000, 0.000, 10:08:02.257
169, 13.82, 5.98, 0.00, 0.00, 0.000, 0.000, 0.000, 10:08:02.273
170, 16.44, 6.06, 0.00, 0.00, 0.000, 0.000, 0.000, 10:08:02.273
171, 12.28, -2.78, 0.00, 0.00, 0.000, 0.000, 0.000, 10:08:02.287
172, 9.71, -1.51, 0.00, 0.00, 0.000, 0.000, 0.000, 10:08:02.287
173, 10.70, 9.17, 0.00, 0.00, 0.000, 0.000, 0.000, 10:08:02.287
174, 14.74, 8.06, 0.00, 0.00, 0.000, 0.000, 0.000, 10:08:02.287
175, 16.40, -3.44, 0.00, 0.00, 0.000, 0.000, 0.000, 10:08:02.302
176, 9.65, 2.43, 0.00, 0.00, 0.000, 0.000, 0.000, 10:08:02.303
177, 9.94, -0.23, 0.00, 0.00, 0.000, 0.000, 0.000, 10:08:02.317
178, 14.61, 3.85, 0.00, 0.00, 0.000, 0.000, 0.000, 10:08:02.318
179, 13.30, -2.11, 0.00, 0.00, 0.000, 0.000, 0.000, 10:08:02.318
180, 8.62, -1.31, 0.00, 0.00, 0.000, 0.000, 0.000, 10:08:02.318
181, 13.38, 0.29, 0.00, 0.00, 0.000, 0.000, 0.000, 10:08:02.332
182, 14.97, 2.72, 0.00, 0.00, 0.000, 0.000, 0.000, 10:08:02.332
183, 13.42, -0.60, 0.00, 0.00, 0.000, 0.000, 0.000, 10:08:02.348
184, 12.55, -0.91, 0.00, 0.00, 0.000, 0.000, 0.000, 10:08:02.348
185, 11.88, 5.23, 0.00, 0.00, 0.000, 0.000, 0.000, 10:08:02.348
186, 15.83, 2.40, 0.00, 0.00, 0.000, 0.000, 0.000, 10:08:02.348
187, 13.27, -5.33, 0.00, 0.00, 0.000, 0.000, 0.000, 10:08:02.362
188, 10.61, 3.44, 0.00, 0.00, 0.000, 0.000, 0.000, 10:08:02.362
189, 10.38, 4.96, 0.00, 0.00, 0.000, 0.000, 0.000, 10:08:02.377
190, 17.34, 6.75, 0.00, 0.00, 0.000, 0.000, 0.000, 10:08:02.377
191, 15.28, -0.33, 0.00, 0.00, 0.000, 0.000, 0.000, 10:08:02.377
192, 8.50, -4.34, 0.00, 0.00, 0.000, 0.000, 0.000, 10:08:02.377
193, 9.99, 1.87, 0.00, 0.00, 0.000, 0.000, 0.000, 10:08:02.392
194, 15.77, 3.57, 0.00, 0.00, 0.000, 0.000, 0.000, 10:08:02.393
195, 12.24, -4.60, 0.00, 0.00, 0.000, 0.000, 0.000, 10:08:02.407
196, 8.24, -2.60, 0.00, 0.00, 0.000, 0.000, 0.000, 10:08:02.407
197, 11.78, -0.99, 0.00, 0.00, 0.000, 0.000, 0.000, 10:08:02.415
198, 15.58, -0.20, 0.00, 0.00, 0.000, 0.000, 0.000, 10:08:02.416
199, 14.85, 0.43, 0.00, 0.00, 0.000, 0.000, 0.000, 10:08:02.422
200, 7.72, 1.30, 0.00, 0.00, 0.000, 0.000, 0.000, 10:08:02.422
0, 9.15, 0.29, 0.00, 0.00, 0.000, 0.000, 0.000, 10:08:02.422
1, 12.55, 2.96, 0.00, 0.00, 0.000, 0.000, 0.000, 10:08:02.437
2, 13.70, -1.03, 0.00, 0.00, 0.000, 0.000, 0.000, 10:08:02.437
3, 7.00, 3.55, 0.00, 0.00, 0.000, 0.000, 0.000, 10:08:02.452
4, 10.28, -0.01, 0.00, 0.00, 0.000, 0.000, 0.000, 10:08:02.452
5, 15.55, 2.08, 0.00, 0.00, 0.000, 0.000, 0.000, 10:08:02.452
6, 15.43, -3.22, 0.00, 0.00, 0.000, 0.000, 0.000, 10:08:02.452
7, 9.12, 1.17, 0.00, 0.00, 0.000, 0.000, 0.000, 10:08:02.467
8, 11.29, 2.92, 0.00, 0.00, 0.000, 0.000, 0.000, 10:08:02.468
9, 14.01, -1.74, 0.00, 0.00, 0.000, 0.000, 0.000, 10:08:02.482
10, 15.06, -0.39, 0.00, 0.00, 0.000, 0.000, 0.000, 10:08:02.482
11, 11.23, -0.36, 0.00, 0.00, 0.000, 0.000, 0.000, 10:08:02.482
12, 9.71, -2.62, 0.00, 0.00, 0.000, 0.000, 0.000, 10:08:02.482
13, 13.87, -6.10, 0.00, 0.00, 0.000, 0.000, 0.000, 10:08:02.497
14, 14.55, -2.00, 0.00, 0.00, 0.000, 0.000, 0.000, 10:08:02.498
15, 9.81, 0.49, 0.00, 0.00, 0.000, 0.000, 0.000, 10:08:02.513
16, 9.15, 2.36, 0.00, 0.00, 0.000, 0.000, 0.000, 10:08:02.513
17, 15.11, 1.37, 0.00, 0.00, 0.000, 0.000, 0.000, 10:08:02.514
18, 14.56, -2.49, 0.00, 0.00, 0.000, 0.000, 0.000, 10:08:02.514
19, 6.57, -3.75, 0.00, 0.00, 0.000, 0.000, 0.000, 10:08:02.542
20, 11.08, -0.68, 0.00, 0.00, 0.000, 0.000, 0.000, 10:08:02.542
21, 16.15, -2.67, 0.00, 0.00, 0.000, 0.000, 0.000, 10:08:02.543
22, 17.37, -5.78, 0.00, 0.00, 0.000, 0.000, 0.000, 10:08:02.543
23, 12.19, -0.71, 0.00, 0.00, 0.000, 0.000, 0.000, 10:08:02.544
24, 13.67, 0.77, 0.00, 0.00, 0.000, 0.000, 0.000, 10:08:02.544
25, 16.79, -0.71, 0.00, 0.00, 0.000, 0.000, 0.000, 10:08:02.557
26, 15.04, 1.41, 0.00, 0.00, 0.000, 0.000, 0.000, 10:08:02.557
27, 10.04, -3.91, 0.00, 0.00, 0.000, 0.000, 0.000, 10:08:02.571
28, 10.29, -0.51, 0.00, 0.00, 0.000, 0.000, 0.000, 10:08:02.572
29, 12.92, 0.76, 0.00, 0.00, 0.000, 0.000, 0.000, 10:08:02.572
30, 13.54, -4.19, 0.00, 0.00, 0.000, 0.000, 0.000, 10:08:02.572
31, 10.63, -1.91, 0.00, 0.00, 0.000, 0.000, 0.000, 10:08:02.588
32, 8.58, 3.79, 0.00, 0.00, 0.000, 0.000, 0.000, 10:08:02.588
33, 13.54, 2.34, 0.00, 0.00, 0.000, 0.000, 0.000, 10:08:02.602
34, 14.61, -2.06, 0.00, 0.00, 0.000, 0.000, 0.000, 10:08:02.602
35, 6.84, 3.00, 0.00, 0.00, 0.000, 0.000, 0.000, 10:08:02.602
36, 11.31, 1.70, 0.00, 0.00, 0.000, 0.000, 0.000, 10:08:02.602
37, 16.73, 0.52, 0.00, 0.00, 0.000, 0.000, 0.000, 10:08:02.617
38, 13.01, 1.67, 0.00, 0.00, 0.000, 0.000, 0.000, 10:08:02.617
39, 10.01, 1.60, 0.00, 0.00, 0.000, 0.000, 0.000, 10:08:02.633
40, 12.96, -0.83, 0.00, 0.00, 0.000, 0.000, 0.000, 10:08:02.633
