%OpenBCI Raw EEG Data
%
%Sample Rate = 200.0 Hz
%First Column = SampleIndex
%Last Column = Timestamp 
%Other Columns = EEG data in microvolts followed by Accel Data (in G) interleaved with Aux Data
0, -1.73, 228.64, 0.00, 0.00, 0.000, 0.000, 0.000, 10:47:44.274
1, 10.78, 226.10, 0.00, 0.00, 0.000, 0.000, 0.000, 10:47:44.287
2, 5.01, 230.33, 0.00, 0.00, 0.000, 0.000, 0.000, 10:47:44.287
3, -2.21, 228.11, 0.00, 0.00, 0.000, 0.000, 0.000, 10:47:44.302
4, 1.20, 225.16, 0.00, 0.00, 0.000, 0.000, 0.000, 10:47:44.302
5, 13.23, 227.45, 0.00, 0.00, 0.000, 0.000, 0.000, 10:47:44.302
6, 4.10, 228.52, 0.00, 0.00, 0.000, 0.000, 0.000, 10:47:44.302
7, -3.78, 229.71, 0.00, 0.00, 0.000, 0.000, 0.000, 10:47:44.317
8, 1.13, 229.08, 0.00, 0.00, 0.000, 0.000, 0.000, 10:47:44.317
9, 15.30, 228.45, 0.00, 0.00, 0.000, 0.000, 0.000, 10:47:44.331
10, 5.53, 229.67, 0.00, 0.00, 0.000, 0.000, 0.000, 10:47:44.331
11, -8.81, 228.56, 0.00, 0.00, 0.000, 0.000, 0.000, 10:47:44.338
12, 2.56, 229.07, 0.00, 0.00, 0.000, 0.000, 0.000, 10:47:44.338
13, 5.58, 226.16, 0.00, 0.00, 0.000, 0.000, 0.000, 10:47:44.346
14, 16.83, 229.73, 0.00, 0.00, 0.000, 0.000, 0.000, 10:47:44.347
15, -7.30, 224.15, 0.00, 0.00, 0.000, 0.000, 0.000, 10:47:44.361
16, -3.63, 222.28, 0.00, 0.00, 0.000, 0.000, 0.000, 10:47:44.361
17, 3.19, 226.75, 0.00, 0.00, 0.000, 0.000, 0.000, 10:47:44.361
18, 4.22, 227.70, 0.00, 0.00, 0.000, 0.000, 0.000, 10:47:44.362
19, -2.88, 226.77, 0.00, 0.00, 0.000, 0.000, 0.000, 10:47:44.376
20, -5.82, 223.05, 0.00, 0.00, 0.000, 0.000, 0.000, 10:47:44.377
21, 5.54, 223.62, 0.00, 0.00, 0.000, 0.000, 0.000, 10:47:44.391
22, 3.29, 230.95, 0.00, 0.00, 0.000, 0.000, 0.000, 10:47:44.391
23, -5.05, 232.30, 0.00, 0.00, 0.000, 0.000, 0.000, 10:47:44.391
24, -5.94, 228.90, 0.00, 0.00, 0.000, 0.000, 0.000, 10:47:44.391
25, 8.93, 230.94, 0.00, 0.00, 0.000, 0.000, 0.000, 10:47:44.406
26, 16.51, 231.87, 0.00, 0.00, 0.000, 0.000, 0.000, 10:47:44.406
27, -5.57, 226.77, 0.00, 0.00, 0.000, 0.000, 0.000, 10:47:44.421
28, -3.27, 227.93, 0.00, 0.00, 0.000, 0.000, 0.000, 10:47:44.421
29, 10.97, 234.42, 0.00, 0.00, 0.000, 0.000, 0.000, 10:47:44.421
30, 7.12, 232.15, 0.00, 0.00, 0.000, 0.000, 0.000, 10:47:44.422
31, -5.87, 231.06, 0.00, 0.00, 0.000, 0.000, 0.000, 10:47:44.436
32, -2.53, 227.87, 0.00, 0.00, 0.000, 0.000, 0.000, 10:47:44.436
33, 9.01, 232.48, 0.00, 0.00, 0.000, 0.000, 0.000, 10:47:44.451
34, 6.55, 229.08, 0.00, 0.00, 0.000, 0.000, 0.000, 10:47:44.451
35, -5.46, 230.50, 0.00, 0.00, 0.000, 0.000, 0.000, 10:47:44.452
36, -3.09, 229.41, 0.00, 0.00, 0.000, 0.000, 0.000, 10:47:44.452
37, 6.49, 229.05, 0.00, 0.00, 0.000, 0.000, 0.000, 10:47:44.466
38, 5.09, 227.19, 0.00, 0.00, 0.000, 0.000, 0.000, 10:47:44.466
39, 1.57, 225.21, 0.00, 0.00, 0.000, 0.000, 0.000, 10:47:44.481
40, -3.09, 224.02, 0.00, 0.00, 0.000, 0.000, 0.000, 10:47:44.481
41, 12.55, 224.21, 0.00, 0.00, 0.000, 0.000, 0.000, 10:47:44.481
42, 8.05, 226.61, 0.00, 0.00, 0.000, 0.000, 0.000, 10:47:44.481
43, -7.56, 222.83, 0.00, 0.00, 0.000, 0.000, 0.000, 10:47:44.496
44, -2.13, 224.34, 0.00, 0.00, 0.000, 0.000, 0.000, 10:47:44.496
45, 11.03, 225.12, 0.00, 0.00, 0.000, 0.000, 0.000, 10:47:44.511
46, 11.91, 226.72, 0.00, 0.00, 0.000, 0.000, 0.000, 10:47:44.511
47, -2.20, 223.43, 0.00, 0.00, 0.000, 0.000, 0.000, 10:47:44.511
48, -11.24, 217.79, 0.00, 0.00, 0.000, 0.000, 0.000, 10:47:44.511
49, 12.75, 227.58, 0.00, 0.00, 0.000, 0.000, 0.000, 10:47:44.527
50, 1.51, 223.19, 0.00, 0.00, 0.000, 0.000, 0.000, 10:47:44.527
51, 1.43, 221.76, 0.00, 0.00, 0.000, 0.000, 0.000, 10:47:44.541
52, -2.33, 221.43, 0.00, 0.00, 0.000, 0.000, 0.000, 10:47:44.543
53, 7.89, 228.84, 0.00, 0.00, 0.000, 0.000, 0.000, 10:47:44.543
54, 6.74, 224.36, 0.00, 0.00, 0.000, 0.000, 0.000, 10:47:44.543
55, -8.81, 223.37, 0.00, 0.00, 0.000, 0.000, 0.000, 10:47:44.556
56, 1.54, 225.53, 0.00, 0.00, 0.000, 0.000, 0.000, 10:47:44.556
57, 6.62, 230.72, 0.00, 0.00, 0.000, 0.000, 0.000, 10:47:44.570
58, 5.36, 229.27, 0.00, 0.00, 0.000, 0.000, 0.000, 10:47:44.570
59, -5.42, 229.61, 0.00, 0.00, 0.000, 0.000, 0.000, 10:47:44.571
60, -3.25, 226.39, 0.00, 0.00, 0.000, 0.000, 0.000, 10:47:44.571
61, 2.41, 224.78, 0.00, 0.00, 0.000, 0.000, 0.000, 10:47:44.586
62, 13.05, 230.05, 0.00, 0.00, 0.000, 0.000, 0.000, 10:47:44.586
63, -2.47, 225.95, 0.00, 0.00, 0.000, 0.000, 0.000, 10:47:44.601
64, -2.39, 227.92, 0.00, 0.00, 0.000, 0.000, 0.000, 10:47:44.601
65, 9.60, 228.25, 0.00, 0.00, 0.000, 0.000, 0.000, 10:47:44.601
66, 7.95, 228.32, 0.00, 0.00, 0.000, 0.000, 0.000, 10:47:44.601
67, -7.60, 230.81, 0.00, 0.00, 0.000, 0.000, 0.000, 10:47:44.616
68, 1.99, 227.95, 0.00, 0.00, 0.000, 0.000, 0.000, 10:47:44.616
69, 5.02, 228.13, 0.00, 0.00, 0.000, 0.000, 0.000, 10:47:44.631
70, 15.97, 233.15, 0.00, 0.00, 0.000, 0.000, 0.000, 10:47:44.631
71, -0.51, 232.37, 0.00, 0.00, 0.000, 0.000, 0.000, 10:47:44.632
72, -6.13, 227.19, 0.00, 0.00, 0.000, 0.000, 0.000, 10:47:44.632
73, 13.74, 232.99, 0.00, 0.00, 0.000, 0.000, 0.000, 10:47:44.646
74, 7.94, 234.73, 0.00, 0.00, 0.000, 0.000, 0.000, 10:47:44.646
75, -6.25, 233.45, 0.00, 0.00, 0.000, 0.000, 0.000, 10:47:44.661
76, -3.40, 230.64, 0.00, 0.00, 0.000, 0.000, 0.000, 10:47:44.662
77, 12.44, 231.64, 0.00, 0.00, 0.000, 0.000, 0.000, 10:47:44.662
78, 9.10, 228.72, 0.00, 0.00, 0.000, 0.000, 0.000, 10:47:44.662
79, -3.34, 230.35, 0.00, 0.00, 0.000, 0.000, 0.000, 10:47:44.676
80, -0.15, 226.96, 0.00, 0.00, 0.000, 0.000, 0.000, 10:47:44.676
81, 7.91, 227.17, 0.00, 0.00, 0.000, 0.000, 0.000, 10:47:44.691
82, 10.67, 228.78, 0.00, 0.00, 0.000, 0.000, 0.000, 10:47:44.691
83, -4.26, 227.42, 0.00, 0.00, 0.000, 0.000, 0.000, 10:47:44.691
84, -7.50, 221.75, 0.00, 0.00, 0.000, 0.000, 0.000, 10:47:44.691
85, 13.30, 223.50, 0.00, 0.00, 0.000, 0.000, 0.000, 10:47:44.706
86, 11.16, 227.84, 0.00, 0.00, 0.000, 0.000, 0.000, 10:47:44.706
87, -3.35, 224.30, 0.00, 0.00, 0.000, 0.000, 0.000, 10:47:44.721
88, -1.98, 224.68, 0.00, 0.00, 0.000, 0.000, 0.000, 10:47:44.722
89, 7.70, 222.55, 0.00, 0.00, 0.000, 0.000, 0.000, 10:47:44.722
90, 6.11, 224.47, 0.00, 0.00, 0.000, 0.000, 0.000, 10:47:44.722
91, -12.50, 221.84, 0.00, 0.00, 0.000, 0.000, 0.000, 10:47:44.735
92, 6.79, 228.67, 0.00, 0.00, 0.000, 0.000, 0.000, 10:47:44.736
93, 8.29, 227.55, 0.00, 0.00, 0.000, 0.000, 0.000, 10:47:44.751
94, 6.14, 231.12, 0.00, 0.00, 0.000, 0.000, 0.000, 10:47:44.752
95, -8.18, 227.41, 0.00, 0.00, 0.000, 0.000, 0.000, 10:47:44.752
96, -0.01, 226.62, 0.00, 0.00, 0.000, 0.000, 0.000, 10:47:44.752
97, 10.36, 230.03, 0.00, 0.00, 0.000, 0.000, 0.000, 10:47:44.766
98, 5.29, 227.33, 0.00, 0.00, 0.000, 0.000, 0.000, 10:47:44.767
99, -7.18, 221.28, 0.00, 0.00, 0.000, 0.000, 0.000, 10:47:44.781
100, -5.44, 224.24, 0.00, 0.00, 0.000, 0.000, 0.000, 10:47:44.781
101, 7.95, 222.20, 0.00, 0.00, 0.000, 0.000, 0.000, 10:47:44.788
102, 5.21, 220.05, 0.00, 0.00, 0.000, 0.000, 0.000, 10:47:44.788
103, -7.95, 221.70, 0.00, 0.00, 0.000, 0.000, 0.000, 10:47:44.796
104, -4.11, 220.59, 0.00, 0.00, 0.000, 0.000, 0.000, 10:47:44.796
105, 6.94, 222.16, 0.00, 0.00, 0.000, 0.000, 0.000, 10:47:44.811
106, 3.94, 224.72, 0.00, 0.00, 0.000, 0.000, 0.000, 10:47:44.811
107, -7.30, 225.85, 0.00, 0.00, 0.000, 0.000, 0.000, 10:47:44.812
108, 1.11, 222.04, 0.00, 0.00, 0.000, 0.000, 0.000, 10:47:44.813
109, 17.86, 235.66, 0.00, 0.00, 0.000, 0.000, 0.000, 10:47:44.826
110, 8.74, 232.98, 0.00, 0.00, 0.000, 0.000, 0.000, 10:47:44.826
111, 0.13, 227.65, 0.00, 0.00, 0.000, 0.000, 0.000, 10:47:44.840
112, -2.40, 226.05, 0.00, 0.00, 0.000, 0.000, 0.000, 10:47:44.841
113, 8.67, 227.87, 0.00, 0.00, 0.000, 0.000, 0.000, 10:47:44.841
114, 8.70, 226.77, 0.00, 0.00, 0.000, 0.000, 0.000, 10:47:44.841
115, -6.96, 226.56, 0.00, 0.00, 0.000, 0.000, 0.000, 10:47:44.857
116, 0.65, 225.06, 0.00, 0.00, 0.000, 0.000, 0.000, 10:47:44.857
117, 5.94, 224.46, 0.00, 0.00, 0.000, 0.000, 0.000, 10:47:44.872
118, 5.41, 229.13, 0.00, 0.00, 0.000, 0.000, 0.000, 10:47:44.872
119, -5.98, 228.20, 0.00, 0.00, 0.000, 0.000, 0.000, 10:47:44.873
120, -2.89, 226.17, 0.00, 0.00, 0.000, 0.000, 0.000, 10:47:44.873
121, 4.91, 230.41, 0.00, 0.00, 0.000, 0.000, 0.000, 10:47:44.886
122, 7.55, 227.00, 0.00, 0.00, 0.000, 0.000, 0.000, 10:47:44.886
123, -1.17, 225.87, 0.00, 0.00, 0.000, 0.000, 0.000, 10:47:44.902
124, -0.84, 223.40, 0.00, 0.00, 0.000, 0.000, 0.000, 10:47:44.902
125, 13.11, 225.53, 0.00, 0.00, 0.000, 0.000, 0.000, 10:47:44.903
126, 6.96, 226.16, 0.00, 0.00, 0.000, 0.000, 0.000, 10:47:44.903
127, -4.14, 223.76, 0.00, 0.00, 0.000, 0.000, 0.000, 10:47:44.917
128, -1.83, 224.03, 0.00, 0.00, 0.000, 0.000, 0.000, 10:47:44.917
129, 8.21, 227.26, 0.00, 0.00, 0.000, 0.000, 0.000, 10:47:44.931
130, 2.39, 229.67, 0.00, 0.00, 0.000, 0.000, 0.000, 10:47:44.931
131, -9.46, 223.19, 0.00, 0.00, 0.000, 0.000, 0.000, 10:47:44.931
132, -0.65, 223.38, 0.00, 0.00, 0.000, 0.000, 0.000, 10:47:44.931
133, 13.16, 230.58, 0.00, 0.00, 0.000, 0.000, 0.000, 10:47:44.946
134, 9.59, 225.43, 0.00, 0.00, 0.000, 0.000, 0.000, 10:47:44.947
135, -4.82, 222.94, 0.00, 0.00, 0.000, 0.000, 0.000, 10:47:44.961
136, -2.78, 223.92, 0.00, 0.00, 0.000, 0.000, 0.000, 10:47:44.961
137, 10.30, 227.03, 0.00, 0.00, 0.000, 0.000, 0.000, 10:47:44.961
138, 5.01, 225.43, 0.00, 0.00, 0.000, 0.000, 0.000, 10:47:44.961
139, 0.50, 228.62, 0.00, 0.00, 0.000, 0.000, 0.000, 10:47:44.977
140, -0.90, 228.95, 0.00, 0.00, 0.000, 0.000, 0.000, 10:47:44.977
141, 6.37, 224.48, 0.00, 0.00, 0.000, 0.000, 0.000, 10:47:44.991
142, 9.27, 227.96, 0.00, 0.00, 0.000, 0.000, 0.000, 10:47:44.991
143, -1.82, 229.58, 0.00, 0.00, 0.000, 0.000, 0.000, 10:47:44.991
144, -2.65, 225.98, 0.00, 0.00, 0.000, 0.000, 0.000, 10:47:44.991
145, 8.62, 226.09, 0.00, 0.00, 0.000, 0.000, 0.000, 10:47:45.005
146, 8.87, 228.44, 0.00, 0.00, 0.000, 0.000, 0.000, 10:47:45.006
147, -5.25, 226.87, 0.00, 0.00, 0.000, 0.000, 0.000, 10:47:45.021
148, -7.50, 224.94, 0.00, 0.00, 0.000, 0.000, 0.000, 10:47:45.022
149, 9.27, 227.19, 0.00, 0.00, 0.000, 0.000, 0.000, 10:47:45.022
150, 4.81, 228.05, 0.00, 0.00, 0.000, 0.000, 0.000, 10:47:45.022
151, -13.85, 223.82, 0.00, 0.00, 0.000, 0.000, 0.000, 10:47:45.036
152, 7.75, 228.88, 0.00, 0.00, 0.000, 0.000, 0.000, 10:47:45.036
153, 9.25, 229.73, 0.00, 0.00, 0.000, 0.000, 0.000, 10:47:45.051
154, 8.72, 230.57, 0.00, 0.00, 0.000, 0.000, 0.000, 10:47:45.051
155, -3.48, 227.11, 0.00, 0.00, 0.000, 0.000, 0.000, 10:47:45.051
156, -4.51, 224.83, 0.00, 0.00, 0.000, 0.000, 0.000, 10:47:45.051
157, 11.48, 231.22, 0.00, 0.00, 0.000, 0.000, 0.000, 10:47:45.066
158, 7.57, 232.52, 0.00, 0.00, 0.000, 0.000, 0.000, 10:47:45.067
159, -3.02, 228.78, 0.00, 0.00, 0.000, 0.000, 0.000, 10:47:45.081
160, -2.42, 229.66, 0.00, 0.00, 0.000, 0.000, 0.000, 10:47:45.081
161, 9.79, 227.12, 0.00, 0.00, 0.000, 0.000, 0.000, 10:47:45.081
162, 6.91, 231.42, 0.00, 0.00, 0.000, 0.000, 0.000, 10:47:45.081
163, -8.08, 225.07, 0.00, 0.00, 0.000, 0.000, 0.000, 10:47:45.096
164, -3.86, 226.45, 0.00, 0.00, 0.000, 0.000, 0.000, 10:47:45.096
165, 8.49, 224.85, 0.00, 0.00, 0.000, 0.000, 0.000, 10:47:45.111
166, 3.09, 229.55, 0.00, 0.00, 0.000, 0.000, 0.000, 10:47:45.111
167, -0.39, 226.09, 0.00, 0.00, 0.000, 0.000, 0.000, 10:47:45.111
168, -1.75, 229.26, 0.00, 0.00, 0.000, 0.000, 0.000, 10:47:45.111
169, 6.14, 223.94, 0.00, 0.00, 0.000, 0.000, 0.000, 10:47:45.127
170, 9.62, 225.30, 0.00, 0.00, 0.000, 0.000, 0.000, 10:47:45.127
171, 1.38, 222.14, 0.00, 0.00, 0.000, 0.000, 0.000, 10:47:45.140
172, -0.35, 224.39, 0.00, 0.00, 0.000, 0.000, 0.000, 10:47:45.140
173, 11.13, 223.81, 0.00, 0.00, 0.000, 0.000, 0.000, 10:47:45.141
174, 10.32, 230.28, 0.00, 0.00, 0.000, 0.000, 0.000, 10:47:45.141
175, -0.32, 229.74, 0.00, 0.00, 0.000, 0.000, 0.000, 10:47:45.156
176, -3.25, 221.82, 0.00, 0.00, 0.000, 0.000, 0.000, 10:47:45.156
177, 11.37, 233.19, 0.00, 0.00, 0.000, 0.000, 0.000, 10:47:45.171
178, 8.40, 229.25, 0.00, 0.00, 0.000, 0.000, 0.000, 10:47:45.171
179, -3.94, 221.81, 0.00, 0.00, 0.000, 0.000, 0.000, 10:47:45.171
180, -3.58, 221.87, 0.00, 0.00, 0.000, 0.000, 0.000, 10:47:45.172
181, 10.01, 222.06, 0.00, 0.00, 0.000, 0.000, 0.000, 10:47:45.193
182, 9.66, 220.94, 0.00, 0.00, 0.000, 0.000, 0.000, 10:47:45.193
183, -5.63, 221.86, 0.00, 0.00, 0.000, 0.000, 0.000, 10:47:45.201
184, -8.44, 218.37, 0.00, 0.00, 0.000, 0.000, 0.000, 10:47:45.201
185, 19.17, 222.21, 0.00, 0.00, 0.000, 0.000, 0.000, 10:47:45.201
186, 8.41, 222.34, 0.00, 0.00, 0.000, 0.000, 0.000, 10:47:45.201
187, -7.56, 224.04, 0.00, 0.00, 0.000, 0.000, 0.000, 10:47:45.216
188, -0.61, 222.94, 0.00, 0.00, 0.000, 0.000, 0.000, 10:47:45.216
189, 5.98, 222.83, 0.00, 0.00, 0.000, 0.000, 0.000, 10:47:45.231
190, 5.53, 226.61, 0.00, 0.00, 0.000, 0.000, 0.000, 10:47:45.232
191, -2.44, 223.47, 0.00, 0.00, 0.000, 0.000, 0.000, 10:47:45.232
192, -5.07, 225.28, 0.00, 0.00, 0.000, 0.000, 0.000, 10:47:45.232
193, 12.03, 230.58, 0.00, 0.00, 0.000, 0.000, 0.000, 10:47:45.246
194, 8.21, 228.79, 0.00, 0.00, 0.000, 0.000, 0.000, 10:47:45.246
195, -2.06, 228.53, 0.00, 0.00, 0.000, 0.000, 0.000, 10:47:45.261
196, -4.15, 228.33, 0.00, 0.00, 0.000, 0.000, 0.000, 10:47:45.261
197, 9.38, 225.90, 0.00, 0.00, 0.000, 0.000, 0.000, 10:47:45.261
198, 6.06, 225.77, 0.00, 0.00, 0.000, 0.000, 0.000, 10:47:45.261
199, -5.65, 220.67, 0.00, 0.00, 0.000, 0.000, 0.000, 10:47:45.276
200, -2.13, 224.93, 0.00, 0.00, 0.000, 0.000, 0.000, 10:47:45.276
0, 14.12, 225.20, 0.00, 0.00, 0.000, 0.000, 0.000, 10:47:45.276
1, 2.97, 228.39, 0.00, 0.00, 0.000, 0.000, 0.000, 10:47:45.291
2, -7.17, 223.79, 0.00, 0.00, 0.000, 0.000, 0.000, 10:47:45.292
3, -0.16, 225.70, 0.00, 0.00, 0.000, 0.000, 0.000, 10:47:45.306
4, 4.74, 224.07, 0.00, 0.00, 0.000, 0.000, 0.000, 10:47:45.306
5, 14.39, 222.95, 0.00, 0.00, 0.000, 0.000, 0.000, 10:47:45.306
6, -5.57, 223.82, 0.00, 0.00, 0.000, 0.000, 0.000, 10:47:45.306
7, -3.99, 224.24, 0.00, 0.00, 0.000, 0.000, 0.000, 10:47:45.321
8, 7.43, 226.01, 0.00, 0.00, 0.000, 0.000, 0.000, 10:47:45.321
9, 13.58, 225.78, 0.00, 0.00, 0.000, 0.000, 0.000, 10:47:45.336
10, -2.92, 225.19, 0.00, 0.00, 0.000, 0.000, 0.000, 10:47:45.336
11, -1.95, 223.97, 0.00, 0.00, 0.000, 0.000, 0.000, 10:47:45.336
12, 8.61, 225.14, 0.00, 0.00, 0.000, 0.000, 0.000, 10:47:45.336
13, 5.67, 229.16, 0.00, 0.00, 0.000, 0.000, 0.000, 10:47:45.351
14, -2.30, 226.94, 0.00, 0.00, 0.000, 0.000, 0.000, 10:47:45.351
15, -5.62, 222.40, 0.00, 0.00, 0.000, 0.000, 0.000, 10:47:45.366
16, 8.07, 227.00, 0.00, 0.00, 0.000, 0.000, 0.000, 10:47:45.366
17, 5.58, 229.73, 0.00, 0.00, 0.000, 0.000, 0.000, 10:47:45.366
18, -13.59, 224.04, 0.00, 0.00, 0.000, 0.000, 0.000, 10:47:45.367
19, -4.45, 229.99, 0.00, 0.00, 0.000, 0.000, 0.000, 10:47:45.381
20, 11.36, 226.38, 0.00, 0.00, 0.000, 0.000, 0.000, 10:47:45.381
21, 8.81, 231.08, 0.00, 0.00, 0.000, 0.000, 0.000, 10:47:45.396
22, -4.38, 227.34, 0.00, 0.00, 0.000, 0.000, 0.000, 10:47:45.396
23, -0.48, 224.86, 0.00, 0.00, 0.000, 0.000, 0.000, 10:47:45.397
24, 8.30, 229.08, 0.00, 0.00, 0.000, 0.000, 0.000, 10:47:45.397
25, 6.73, 224.60, 0.00, 0.00, 0.000, 0.000, 0.000, 10:47:45.411
26, -0.62, 224.81, 0.00, 0.00, 0.000, 0.000, 0.000, 10:47:45.411
27, -8.44, 220.22, 0.00, 0.00, 0.000, 0.000, 0.000, 10:47:45.426
28, 11.59, 227.96, 0.00, 0.00, 0.000, 0.000, 0.000, 10:47:45.426
29, 13.46, 225.37, 0.00, 0.00, 0.000, 0.000, 0.000, 10:47:45.426
30, -0.82, 225.75, 0.00, 0.00, 0.000, 0.000, 0.000, 10:47:45.427
31, -3.57, 222.52, 0.00, 0.00, 0.000, 0.000, 0.000, 10:47:45.441
32, 10.98, 230.77, 0.00, 0.00, 0.000, 0.000, 0.000, 10:47:45.442
33, 4.99, 229.18, 0.00, 0.00, 0.000, 0.000, 0.000, 10:47:45.457
34, -4.42, 231.47, 0.00, 0.00, 0.000, 0.000, 0.000, 10:47:45.457
35, -3.24, 226.30, 0.00, 0.00, 0.000, 0.000, 0.000, 10:47:45.457
36, 11.53, 225.96, 0.00, 0.00, 0.000, 0.000, 0.000, 10:47:45.458
37, 6.23, 231.01, 0.00, 0.00, 0.000, 0.000, 0.000, 10:47:45.478
38, -3.61, 228.31, 0.00, 0.00, 0.000, 0.000, 0.000, 10:47:45.478
39, -2.73, 221.16, 0.00, 0.00, 0.000, 0.000, 0.000, 10:47:45.486
40, 12.44, 225.66, 0.00, 0.00, 0.000, 0.000, 0.000, 10:47:45.486
41, 7.50, 222.19, 0.00, 0.00, 0.000, 0.000, 0.000, 10:47:45.486
42, -5.94, 221.02, 0.00, 0.00, 0.000, 0.000, 0.000, 10:47:45.486
43, -5.53, 221.96, 0.00, 0.00, 0.000, 0.000, 0.000, 10:47:45.501
44, 7.66, 221.70, 0.00, 0.00, 0.000, 0.000, 0.000, 10:47:45.501
45, 6.76, 225.90, 0.00, 0.00, 0.000, 0.000, 0.000, 10:47:45.516
46, -5.53, 223.00, 0.00, 0.00, 0.000, 0.000, 0.000, 10:47:45.516
47, -4.28, 225.26, 0.00, 0.00, 0.000, 0.000, 0.000, 10:47:45.516
48, 8.95, 228.85, 0.00, 0.00, 0.000, 0.000, 0.000, 10:47:45.517
49, 11.70, 227.16, 0.00, 0.00, 0.000, 0.000, 0.000, 10:47:45.531
50, -5.10, 224.40, 0.00, 0.00, 0.000, 0.000, 0.000, 10:47:45.531
51, -5.51, 224.32, 0.00, 0.00, 0.000, 0.000, 0.000, 10:47:45.546
52, 8.57, 228.75, 0.00, 0.00, 0.000, 0.000, 0.000, 10:47:45.547
53, 9.52, 228.29, 0.00, 0.00, 0.000, 0.000, 0.000, 10:47:45.547
54, -4.97, 229.39, 0.00, 0.00, 0.000, 0.000, 0.000, 10:47:45.547
55, -8.95, 227.37, 0.00, 0.00, 0.000, 0.000, 0.000, 10:47:45.561
56, 5.70, 225.14, 0.00, 0.00, 0.000, 0.000, 0.000, 10:47:45.561
57, 1.26, 228.18, 0.00, 0.00, 0.000, 0.000, 0.000, 10:47:45.576
58, -5.42, 226.29, 0.00, 0.00, 0.000, 0.000, 0.000, 10:47:45.576
59, -1.47, 229.78, 0.00, 0.00, 0.000, 0.000, 0.000, 10:47:45.577
60, 8.34, 227.01, 0.00, 0.00, 0.000, 0.000, 0.000, 10:47:45.577
61, 4.82, 229.06, 0.00, 0.00, 0.000, 0.000, 0.000, 10:47:45.591
62, -2.12, 230.33, 0.00, 0.00, 0.000, 0.000, 0.000, 10:47:45.591
63, -2.13, 229.01, 0.00, 0.00, 0.000, 0.000, 0.000, 10:47:45.606
64, 4.81, 225.56, 0.00, 0.00, 0.000, 0.000, 0.000, 10:47:45.606
65, 11.17, 232.45, 0.00, 0.00, 0.000, 0.000, 0.000, 10:47:45.606
66, -6.47, 231.91, 0.00, 0.00, 0.000, 0.000, 0.000, 10:47:45.607
67, -0.71, 229.57, 0.00, 0.00, 0.000, 0.000, 0.000, 10:47:45.621
68, 7.97, 233.84, 0.00, 0.00, 0.000, 0.000, 0.000, 10:47:45.621
69, 1.81, 231.41, 0.00, 0.00, 0.000, 0.000, 0.000, 10:47:45.636
70, 5.48, 235.90, 0.00, 0.00, 0.000, 0.000, 0.000, 10:47:45.636
71, 2.04, 237.15, 0.00, 0.00, 0.000, 0.000, 0.000, 10:47:45.636
72, 10.85, 240.01, 0.00, 0.00, 0.000, 0.000, 0.000, 10:47:45.636
73, 5.77, 238.57, 0.00, 0.00, 0.000, 0.000, 0.000, 10:47:45.651
74, 3.23, 237.21, 0.00, 0.00, 0.000, 0.000, 0.000, 10:47:45.651
75, -1.89, 236.39, 0.00, 0.00, 0.000, 0.000, 0.000, 10:47:45.666
76, 6.49, 236.73, 0.00, 0.00, 0.000, 0.000, 0.000, 10:47:45.666
77, 8.24, 235.90, 0.00, 0.00, 0.000, 0.000, 0.000, 10:47:45.666
78, -0.85, 233.52, 0.00, 0.00, 0.000, 0.000, 0.000, 10:47:45.666
79, -3.45, 231.94, 0.00, 0.00, 0.000, 0.000, 0.000, 10:47:45.682
80, 13.32, 231.12, 0.00, 0.00, 0.000, 0.000, 0.000, 10:47:45.682
81, 7.37, 231.42, 0.00, 0.00, 0.000, 0.000, 0.000, 10:47:45.696
82, -2.49, 234.03, 0.00, 0.00, 0.000, 0.000, 0.000, 10:47:45.696
83, -2.16, 230.12, 0.00, 0.00, 0.000, 0.000, 0.000, 10:47:45.696
84, 13.08, 228.85, 0.00, 0.00, 0.000, 0.000, 0.000, 10:47:45.696
85, 8.70, 235.54, 0.00, 0.00, 0.000, 0.000, 0.000, 10:47:45.712
86, -0.05, 229.73, 0.00, 0.00, 0.000, 0.000, 0.000, 10:47:45.712
87, -3.14, 228.25, 0.00, 0.00, 0.000, 0.000, 0.000, 10:47:45.727
88, 3.03, 230.16, 0.00, 0.00, 0.000, 0.000, 0.000, 10:47:45.727
89, 12.50, 230.37, 0.00, 0.00, 0.000, 0.000, 0.000, 10:47:45.727
90, -2.94, 227.94, 0.00, 0.00, 0.000, 0.000, 0.000, 10:47:45.727
91, -2.91, 225.37, 0.00, 0.00, 0.000, 0.000, 0.000, 10:47:45.741
92, 9.64, 227.20, 0.00, 0.00, 0.000, 0.000, 0.000, 10:47:45.741
93, 4.23, 225.41, 0.00, 0.00, 0.000, 0.000, 0.000, 10:47:45.756
94, -3.88, 229.66, 0.00, 0.00, 0.000, 0.000, 0.000, 10:47:45.756
95, -3.19, 226.42, 0.00, 0.00, 0.000, 0.000, 0.000, 10:47:45.763
96, 5.99, 229.34, 0.00, 0.00, 0.000, 0.000, 0.000, 10:47:45.764
97, 3.87, 227.75, 0.00, 0.00, 0.000, 0.000, 0.000, 10:47:45.771
98, -5.43, 227.82, 0.00, 0.00, 0.000, 0.000, 0.000, 10:47:45.771
99, -6.03, 228.67, 0.00, 0.00, 0.000, 0.000, 0.000, 10:47:45.786
100, 15.14, 232.37, 0.00, 0.00, 0.000, 0.000, 0.000, 10:47:45.787
101, 11.69, 233.53, 0.00, 0.00, 0.000, 0.000, 0.000, 10:47:45.787
102, -5.42, 232.53, 0.00, 0.00, 0.000, 0.000, 0.000, 10:47:45.787
103, -6.01, 230.70, 0.00, 0.00, 0.000, 0.000, 0.000, 10:47:45.802
104, 7.36, 229.12, 0.00, 0.00, 0.000, 0.000, 0.000, 10:47:45.802
105, 4.74, 227.89, 0.00, 0.00, 0.000, 0.000, 0.000, 10:47:45.816
106, -2.84, 226.82, 0.00, 0.00, 0.000, 0.000, 0.000, 10:47:45.816
107, -2.71, 228.23, 0.00, 0.00, 0.000, 0.000, 0.000, 10:47:45.816
108, 11.29, 228.75, 0.00, 0.00, 0.000, 0.000, 0.000, 10:47:45.816
109, 3.29, 230.95, 0.00, 0.00, 0.000, 0.000, 0.000, 10:47:45.831
110, -9.30, 230.48, 0.00, 0.00, 0.000, 0.000, 0.000, 10:47:45.831
111, 2.92, 232.91, 0.00, 0.00, 0.000, 0.000, 0.000, 10:47:45.846
112, 8.90, 232.27, 0.00, 0.00, 0.000, 0.000, 0.000, 10:47:45.846
113, 8.44, 236.11, 0.00, 0.00, 0.000, 0.000, 0.000, 10:47:45.846
114, -2.38, 231.97, 0.00, 0.00, 0.000, 0.000, 0.000, 10:47:45.846
115, -2.29, 232.61, 0.00, 0.00, 0.000, 0.000, 0.000, 10:47:45.861
116, 12.21, 229.89, 0.00, 0.00, 0.000, 0.000, 0.000, 10:47:45.861
117, 10.14, 229.93, 0.00, 0.00, 0.000, 0.000, 0.000, 10:47:45.876
118, -0.05, 229.65, 0.00, 0.00, 0.000, 0.000, 0.000, 10:47:45.876
119, -3.17, 228.20, 0.00, 0.00, 0.000, 0.000, 0.000, 10:47:45.876
120, 6.40, 233.72, 0.00, 0.00, 0.000, 0.000, 0.000, 10:47:45.876
121, 11.31, 234.13, 0.00, 0.00, 0.000, 0.000, 0.000, 10:47:45.891
122, -6.74, 230.42, 0.00, 0.00, 0.000, 0.000, 0.000, 10:47:45.891
123, -3.31, 227.52, 0.00, 0.00, 0.000, 0.000, 0.000, 10:47:45.906
124, 19.34, 232.96, 0.00, 0.00, 0.000, 0.000, 0.000, 10:47:45.906
125, 13.59, 234.61, 0.00, 0.00, 0.000, 0.000, 0.000, 10:47:45.907
126, -2.67, 230.24, 0.00, 0.00, 0.000, 0.000, 0.000, 10:47:45.907
127, -6.20, 234.40, 0.00, 0.00, 0.000, 0.000, 0.000, 10:47:45.921
128, 7.14, 229.96, 0.00, 0.00, 0.000, 0.000, 0.000, 10:47:45.921
129, 9.02, 228.18, 0.00, 0.00, 0.000, 0.000, 0.000, 10:47:45.936
130, -2.45, 228.16, 0.00, 0.00, 0.000, 0.000, 0.000, 10:47:45.936
131, -2.84, 233.04, 0.00, 0.00, 0.000, 0.000, 0.000, 10:47:45.936
132, 6.94, 230.07, 0.00, 0.00, 0.000, 0.000, 0.000, 10:47:45.936
133, 11.37, 231.77, 0.00, 0.00, 0.000, 0.000, 0.000, 10:47:45.951
134, -2.80, 228.69, 0.00, 0.00, 0.000, 0.000, 0.000, 10:47:45.951
135, -2.82, 228.31, 0.00, 0.00, 0.000, 0.000, 0.000, 10:47:45.966
136, 8.95, 234.40, 0.00, 0.00, 0.000, 0.000, 0.000, 10:47:45.966
137, 3.72, 227.19, 0.00, 0.00, 0.000, 0.000, 0.000, 10:47:45.966
138, 10.00, 235.36, 0.00, 0.00, 0.000, 0.000, 0.000, 10:47:45.967
139, -4.03, 230.17, 0.00, 0.00, 0.000, 0.000, 0.000, 10:47:45.982
140, 7.94, 230.94, 0.00, 0.00, 0.000, 0.000, 0.000, 10:47:45.982
141, 10.48, 235.49, 0.00, 0.00, 0.000, 0.000, 0.000, 10:47:45.996
142, -0.06, 233.06, 0.00, 0.00, 0.000, 0.000, 0.000, 10:47:45.996
143, -6.59, 232.50, 0.00, 0.00, 0.000, 0.000, 0.000, 10:47:45.996
144, 9.91, 234.07, 0.00, 0.00, 0.000, 0.000, 0.000, 10:47:45.996
145, 7.38, 234.32, 0.00, 0.00, 0.000, 0.000, 0.000, 10:47:46.011
146, 1.88, 232.19, 0.00, 0.00, 0.000, 0.000, 0.000, 10:47:46.011
147, -2.84, 229.64, 0.00, 0.00, 0.000, 0.000, 0.000, 10:47:46.027
148, 6.79, 229.37, 0.00, 0.00, 0.000, 0.000, 0.000, 10:47:46.027
149, 8.87, 227.87, 0.00, 0.00, 0.000, 0.000, 0.000, 10:47:46.027
150, -1.80, 228.21, 0.00, 0.00, 0.000, 0.000, 0.000, 10:47:46.027
151, -3.61, 228.85, 0.00, 0.00, 0.000, 0.000, 0.000, 10:47:46.041
152, 8.21, 229.47, 0.00, 0.00, 0.000, 0.000, 0.000, 10:47:46.041
153, 12.20, 231.13, 0.00, 0.00, 0.000, 0.000, 0.000, 10:47:46.056
154, -2.97, 229.12, 0.00, 0.00, 0.000, 0.000, 0.000, 10:47:46.056
155, -0.88, 228.18, 0.00, 0.00, 0.000, 0.000, 0.000, 10:47:46.056
156, 11.08, 229.80, 0.00, 0.00, 0.000, 0.000, 0.000, 10:47:46.057
157, 8.34, 233.18, 0.00, 0.00, 0.000, 0.000, 0.000, 10:47:46.071
158, 2.45, 228.49, 0.00, 0.00, 0.000, 0.000, 0.000, 10:47:46.071
159, -6.04, 224.30, 0.00, 0.00, 0.000, 0.000, 0.000, 10:47:46.086
160, 12.32, 231.17, 0.00, 0.00, 0.000, 0.000, 0.000, 10:47:46.086
161, 7.68, 235.70, 0.00, 0.00, 0.000, 0.000, 0.000, 10:47:46.086
162, -5.13, 232.81, 0.00, 0.00, 0.000, 0.000, 0.000, 10:47:46.086
163, -4.40, 228.49, 0.00, 0.00, 0.000, 0.000, 0.000, 10:47:46.101
164, 9.47, 228.93, 0.00, 0.00, 0.000, 0.000, 0.000, 10:47:46.101
165, 7.06, 231.88, 0.00, 0.00, 0.000, 0.000, 0.000, 10:47:46.116
166, -4.61, 225.87, 0.00, 0.00, 0.000, 0.000, 0.000, 10:47:46.116
167, -5.36, 227.61, 0.00, 0.00, 0.000, 0.000, 0.000, 10:47:46.116
168, 13.49, 230.39, 0.00, 0.00, 0.000, 0.000, 0.000, 10:47:46.116
169, 9.32, 227.48, 0.00, 0.00, 0.000, 0.000, 0.000, 10:47:46.131
170, -2.57, 224.96, 0.00, 0.00, 0.000, 0.000, 0.000, 10:47:46.131
171, -1.66, 227.16, 0.00, 0.00, 0.000, 0.000, 0.000, 10:47:46.146
172, 7.57, 231.88, 0.00, 0.00, 0.000, 0.000, 0.000, 10:47:46.146
173, 10.46, 234.05, 0.00, 0.00, 0.000, 0.000, 0.000, 10:47:46.147
174, -4.47, 229.68, 0.00, 0.00, 0.000, 0.000, 0.000, 10:47:46.147
175, -3.59, 232.14, 0.00, 0.00, 0.000, 0.000, 0.000, 10:47:46.161
176, 5.26, 231.20, 0.00, 0.00, 0.000, 0.000, 0.000, 10:47:46.161
177, 5.01, 229.34, 0.00, 0.00, 0.000, 0.000, 0.000, 10:47:46.176
178, -0.90, 231.40, 0.00, 0.00, 0.000, 0.000, 0.000, 10:47:46.177
179, -2.08, 228.78, 0.00, 0.00, 0.000, 0.000, 0.000, 10:47:46.178
180, 8.58, 227.17, 0.00, 0.00, 0.000, 0.000, 0.000, 10:47:46.178
181, 7.98, 228.39, 0.00, 0.00, 0.000, 0.000, 0.000, 10:47:46.198
182, -2.47, 223.15, 0.00, 0.00, 0.000, 0.000, 0.000, 10:47:46.198
183, -2.13, 228.65, 0.00, 0.00, 0.000, 0.000, 0.000, 10:47:46.206
184, 8.04, 224.88, 0.00, 0.00, 0.000, 0.000, 0.000, 10:47:46.206
185, 7.43, 226.33, 0.00, 0.00, 0.000, 0.000, 0.000, 10:47:46.206
186, -0.06, 230.54, 0.00, 0.00, 0.000, 0.000, 0.000, 10:47:46.206
187, -2.04, 228.82, 0.00, 0.00, 0.000, 0.000, 0.000, 10:47:46.221
188, 7.87, 232.63, 0.00, 0.00, 0.000, 0.000, 0.000, 10:47:46.221
189, 4.60, 235.15, 0.00, 0.00, 0.000, 0.000, 0.000, 10:47:46.235
190, -3.66, 231.15, 0.00, 0.00, 0.000, 0.000, 0.000, 10:47:46.236
191, 0.40, 229.36, 0.00, 0.00, 0.000, 0.000, 0.000, 10:47:46.236
192, 13.23, 232.16, 0.00, 0.00, 0.000, 0.000, 0.000, 10:47:46.236
193, 6.21, 233.07, 0.00, 0.00, 0.000, 0.000, 0.000, 10:47:46.251
194, -3.63, 231.37, 0.00, 0.00, 0.000, 0.000, 0.000, 10:47:46.251
195, -2.57, 229.15, 0.00, 0.00, 0.000, 0.000, 0.000, 10:47:46.266
196, 7.94, 233.08, 0.00, 0.00, 0.000, 0.000, 0.000, 10:47:46.266
197, 12.71, 236.20, 0.00, 0.00, 0.000, 0.000, 0.000, 10:47:46.267
198, -2.74, 231.11, 0.00, 0.00, 0.000, 0.000, 0.000, 10:47:46.267
199, -0.90, 231.86, 0.00, 0.00, 0.000, 0.000, 0.000, 10:47:46.281
200, 8.75, 235.16, 0.00, 0.00, 0.000, 0.000, 0.000, 10:47:46.281
0, 9.19, 233.94, 0.00, 0.00, 0.000, 0.000, 0.000, 10:47:46.281
1, -9.62, 230.08, 0.00, 0.00, 0.000, 0.000, 0.000, 10:47:46.296
2, 3.22, 234.63, 0.00, 0.00, 0.000, 0.000, 0.000, 10:47:46.296
3, 3.86, 232.35, 0.00, 0.00, 0.000, 0.000, 0.000, 10:47:46.311
4, 9.44, 238.47, 0.00, 0.00, 0.000, 0.000, 0.000, 10:47:46.311
5, 0.76, 235.50, 0.00, 0.00, 0.000, 0.000, 0.000, 10:47:46.312
6, -5.12, 234.95, 0.00, 0.00, 0.000, 0.000, 0.000, 10:47:46.312
7, 5.93, 239.67, 0.00, 0.00, 0.000, 0.000, 0.000, 10:47:46.326
8, 10.90, 236.04, 0.00, 0.00, 0.000, 0.000, 0.000, 10:47:46.326
9, -1.40, 235.71, 0.00, 0.00, 0.000, 0.000, 0.000, 10:47:46.341
10, -4.92, 234.36, 0.00, 0.00, 0.000, 0.000, 0.000, 10:47:46.342
11, 9.95, 237.85, 0.00, 0.00, 0.000, 0.000, 0.000, 10:47:46.342
12, 3.31, 235.22, 0.00, 0.00, 0.000, 0.000, 0.000, 10:47:46.342
13, 3.55, 234.22, 0.00, 0.00, 0.000, 0.000, 0.000, 10:47:46.356
14, -4.36, 233.64, 0.00, 0.00, 0.000, 0.000, 0.000, 10:47:46.356
15, 18.07, 237.45, 0.00, 0.00, 0.000, 0.000, 0.000, 10:47:46.370
16, 2.64, 230.50, 0.00, 0.00, 0.000, 0.000, 0.000, 10:47:46.371
17, 4.17, 239.89, 0.00, 0.00, 0.000, 0.000, 0.000, 10:47:46.371
18, -6.26, 230.57, 0.00, 0.00, 0.000, 0.000, 0.000, 10:47:46.371
19, 14.18, 242.29, 0.00, 0.00, 0.000, 0.000, 0.000, 10:47:46.386
20, 11.38, 238.47, 0.00, 0.00, 0.000, 0.000, 0.000, 10:47:46.386
21, -0.06, 234.56, 0.00, 0.00, 0.000, 0.000, 0.000, 10:47:46.401
22, -8.41, 233.84, 0.00, 0.00, 0.000, 0.000, 0.000, 10:47:46.401
23, 10.55, 232.48, 0.00, 0.00, 0.000, 0.000, 0.000, 10:47:46.401
24, 7.30, 237.35, 0.00, 0.00, 0.000, 0.000, 0.000, 10:47:46.402
25, -8.14, 233.40, 0.00, 0.00, 0.000, 0.000, 0.000, 10:47:46.415
26, 0.26, 237.48, 0.00, 0.00, 0.000, 0.000, 0.000, 10:47:46.416
27, 9.05, 232.69, 0.00, 0.00, 0.000, 0.000, 0.000, 10:47:46.431
28, 7.26, 236.43, 0.00, 0.00, 0.000, 0.000, 0.000, 10:47:46.431
29, -0.75, 238.65, 0.00, 0.00, 0.000, 0.000, 0.000, 10:47:46.431
30, -2.89, 237.11, 0.00, 0.00, 0.000, 0.000, 0.000, 10:47:46.431
31, 5.70, 237.50, 0.00, 0.00, 0.000, 0.000, 0.000, 10:47:46.446
32, 9.57, 241.00, 0.00, 0.00, 0.000, 0.000, 0.000, 10:47:46.446
33, -4.73, 234.69, 0.00, 0.00, 0.000, 0.000, 0.000, 10:47:46.461
34, -3.80, 236.46, 0.00, 0.00, 0.000, 0.000, 0.000, 10:47:46.461
35, 13.61, 237.64, 0.00, 0.00, 0.000, 0.000, 0.000, 10:47:46.461
36, 7.07, 239.90, 0.00, 0.00, 0.000, 0.000, 0.000, 10:47:46.461
37, -0.74, 236.98, 0.00, 0.00, 0.000, 0.000, 0.000, 10:47:46.476
38, -2.80, 231.71, 0.00, 0.00, 0.000, 0.000, 0.000, 10:47:46.476
39, 6.26, 229.60, 0.00, 0.00, 0.000, 0.000, 0.000, 10:47:46.491
40, 12.14, 231.40, 0.00, 0.00, 0.000, 0.000, 0.000, 10:47:46.491
41, 1.08, 234.25, 0.00, 0.00, 0.000, 0.000, 0.000, 10:47:46.492
42, -5.86, 229.98, 0.00, 0.00, 0.000, 0.000, 0.000, 10:47:46.493
43, 9.89, 228.42, 0.00, 0.00, 0.000, 0.000, 0.000, 10:47:46.506
44, 10.39, 230.81, 0.00, 0.00, 0.000, 0.000, 0.000, 10:47:46.506
45, -3.04, 228.34, 0.00, 0.00, 0.000, 0.000, 0.000, 10:47:46.522
46, -0.53, 230.10, 0.00, 0.00, 0.000, 0.000, 0.000, 10:47:46.522
47, 7.93, 236.07, 0.00, 0.00, 0.000, 0.000, 0.000, 10:47:46.522
48, 9.73, 235.62, 0.00, 0.00, 0.000, 0.000, 0.000, 10:47:46.522
49, -0.96, 235.95, 0.00, 0.00, 0.000, 0.000, 0.000, 10:47:46.535
50, -7.45, 231.98, 0.00, 0.00, 0.000, 0.000, 0.000, 10:47:46.536
51, 5.67, 229.97, 0.00, 0.00, 0.000, 0.000, 0.000, 10:47:46.551
52, 1.25, 229.83, 0.00, 0.00, 0.000, 0.000, 0.000, 10:47:46.551
53, 1.59, 231.15, 0.00, 0.00, 0.000, 0.000, 0.000, 10:47:46.551
54, -4.57, 228.89, 0.00, 0.00, 0.000, 0.000, 0.000, 10:47:46.551
55, 7.65, 232.07, 0.00, 0.00, 0.000, 0.000, 0.000, 10:47:46.583
56, 9.36, 230.63, 0.00, 0.00, 0.000, 0.000, 0.000, 10:47:46.583
57, -5.06, 231.42, 0.00, 0.00, 0.000, 0.000, 0.000, 10:47:46.583
58, -3.36, 228.25, 0.00, 0.00, 0.000, 0.000, 0.000, 10:47:46.583
59, 12.01, 230.97, 0.00, 0.00, 0.000, 0.000, 0.000, 10:47:46.583
60, 6.77, 235.06, 0.00, 0.00, 0.000, 0.000, 0.000, 10:47:46.583
61, 1.39, 228.34, 0.00, 0.00, 0.000, 0.000, 0.000, 10:47:46.596
62, -0.54, 229.35, 0.00, 0.00, 0.000, 0.000, 0.000, 10:47:46.596
63, 7.40, 231.02, 0.00, 0.00, 0.000, 0.000, 0.000, 10:47:46.611
64, 14.17, 234.04, 0.00, 0.00, 0.000, 0.000, 0.000, 10:47:46.612
65, -1.13, 233.52, 0.00, 0.00, 0.000, 0.000, 0.000, 10:47:46.615
66, -2.12, 230.65, 0.00, 0.00, 0.000, 0.000, 0.000, 10:47:46.615
67, 8.45, 228.78, 0.00, 0.00, 0.000, 0.000, 0.000, 10:47:46.627
68, 11.63, 221.78, 0.00, 0.00, 0.000, 0.000, 0.000, 10:47:46.627
69, 5.99, 229.22, 0.00, 0.00, 0.000, 0.000, 0.000, 10:47:46.641
70, -5.01, 230.95, 0.00, 0.00, 0.000, 0.000, 0.000, 10:47:46.641
71, 14.73, 232.28, 0.00, 0.00, 0.000, 0.000, 0.000, 10:47:46.641
72, 12.48, 232.22, 0.00, 0.00, 0.000, 0.000, 0.000, 10:47:46.641
73, -1.57, 232.00, 0.00, 0.00, 0.000, 0.000, 0.000, 10:47:46.656
74, -2.01, 233.58, 0.00, 0.00, 0.000, 0.000, 0.000, 10:47:46.656
75, 6.56, 232.40, 0.00, 0.00, 0.000, 0.000, 0.000, 10:47:46.672
76, 12.03, 237.75, 0.00, 0.00, 0.000, 0.000, 0.000, 10:47:46.672
77, -2.41, 228.33, 0.00, 0.00, 0.000, 0.000, 0.000, 10:47:46.672
78, -6.70, 223.90, 0.00, 0.00, 0.000, 0.000, 0.000, 10:47:46.672
79, 9.81, 228.78, 0.00, 0.00, 0.000, 0.000, 0.000, 10:47:46.686
80, 8.31, 227.40, 0.00, 0.00, 0.000, 0.000, 0.000, 10:47:46.686
81, 5.80, 231.28, 0.00, 0.00, 0.000, 0.000, 0.000, 10:47:46.701
82, -6.39, 229.64, 0.00, 0.00, 0.000, 0.000, 0.000, 10:47:46.701
83, 7.77, 233.32, 0.00, 0.00, 0.000, 0.000, 0.000, 10:47:46.702
84, 13.11, 233.65, 0.00, 0.00, 0.000, 0.000, 0.000, 10:47:46.702
85, -0.96, 233.46, 0.00, 0.00, 0.000, 0.000, 0.000, 10:47:46.716
86, -3.55, 230.93, 0.00, 0.00, 0.000, 0.000, 0.000, 10:47:46.716
87, 12.28, 233.61, 0.00, 0.00, 0.000, 0.000, 0.000, 10:47:46.730
88, 10.45, 233.67, 0.00, 0.00, 0.000, 0.000, 0.000, 10:47:46.732
89, 2.48, 232.30, 0.00, 0.00, 0.000, 0.000, 0.000, 10:47:46.732
90, -7.65, 229.86, 0.00, 0.00, 0.000, 0.000, 0.000, 10:47:46.732
91, 9.95, 231.60, 0.00, 0.00, 0.000, 0.000, 0.000, 10:47:46.746
92, 14.02, 233.99, 0.00, 0.00, 0.000, 0.000, 0.000, 10:47:46.746
93, -0.43, 230.54, 0.00, 0.00, 0.000, 0.000, 0.000, 10:47:46.761
94, -4.11, 230.30, 0.00, 0.00, 0.000, 0.000, 0.000, 10:47:46.761
95, 7.97, 230.08, 0.00, 0.00, 0.000, 0.000, 0.000, 10:47:46.761
96, 4.12, 230.57, 0.00, 0.00, 0.000, 0.000, 0.000, 10:47:46.761
97, 8.98, 230.62, 0.00, 0.00, 0.000, 0.000, 0.000, 10:47:46.776
98, -1.03, 233.75, 0.00, 0.00, 0.000, 0.000, 0.000, 10:47:46.776
99, 4.72, 230.63, 0.00, 0.00, 0.000, 0.000, 0.000, 10:47:46.791
100, 7.96, 237.90, 0.00, 0.00, 0.000, 0.000, 0.000, 10:47:46.791
101, -0.70, 232.12, 0.00, 0.00, 0.000, 0.000, 0.000, 10:47:46.791
102, -3.73, 232.22, 0.00, 0.00, 0.000, 0.000, 0.000, 10:47:46.792
103, 6.76, 231.97, 0.00, 0.00, 0.000, 0.000, 0.000, 10:47:46.806
104, 13.44, 230.18, 0.00, 0.00, 0.000, 0.000, 0.000, 10:47:46.806
105, -1.46, 230.65, 0.00, 0.00, 0.000, 0.000, 0.000, 10:47:46.822
106, -4.29, 235.34, 0.00, 0.00, 0.000, 0.000, 0.000, 10:47:46.822
107, 1.44, 227.07, 0.00, 0.00, 0.000, 0.000, 0.000, 10:47:46.829
108, 24.85, 234.29, 0.00, 0.00, 0.000, 0.000, 0.000, 10:47:46.829
109, -0.96, 231.81, 0.00, 0.00, 0.000, 0.000, 0.000, 10:47:46.836
110, -3.29, 234.75, 0.00, 0.00, 0.000, 0.000, 0.000, 10:47:46.836
111, 8.07, 234.03, 0.00, 0.00, 0.000, 0.000, 0.000, 10:47:46.851
112, 8.54, 235.39, 0.00, 0.00, 0.000, 0.000, 0.000, 10:47:46.851
113, -5.55, 234.58, 0.00, 0.00, 0.000, 0.000, 0.000, 10:47:46.851
114, -1.56, 232.78, 0.00, 0.00, 0.000, 0.000, 0.000, 10:47:46.851
115, 4.83, 233.14, 0.00, 0.00, 0.000, 0.000, 0.000, 10:47:46.866
116, 13.38, 232.63, 0.00, 0.00, 0.000, 0.000, 0.000, 10:47:46.866
117, -3.03, 226.36, 0.00, 0.00, 0.000, 0.000, 0.000, 10:47:46.881
118, -3.17, 227.83, 0.00, 0.00, 0.000, 0.000, 0.000, 10:47:46.881
119, 4.47, 229.95, 0.00, 0.00, 0.000, 0.000, 0.000, 10:47:46.881
120, 6.28, 228.62, 0.00, 0.00, 0.000, 0.000, 0.000, 10:47:46.881
121, 1.16, 232.65, 0.00, 0.00, 0.000, 0.000, 0.000, 10:47:46.897
122, -8.64, 226.57, 0.00, 0.00, 0.000, 0.000, 0.000, 10:47:46.897
123, 5.99, 233.33, 0.00, 0.00, 0.000, 0.000, 0.000, 10:47:46.912
124, 4.88, 232.08, 0.00, 0.00, 0.000, 0.000, 0.000, 10:47:46.912
125, -1.90, 230.06, 0.00, 0.00, 0.000, 0.000, 0.000, 10:47:46.912
126, -7.98, 225.84, 0.00, 0.00, 0.000, 0.000, 0.000, 10:47:46.912
127, 12.13, 232.57, 0.00, 0.00, 0.000, 0.000, 0.000, 10:47:46.926
128, 10.78, 235.02, 0.00, 0.00, 0.000, 0.000, 0.000, 10:47:46.926
129, -0.44, 235.19, 0.00, 0.00, 0.000, 0.000, 0.000, 10:47:46.940
130, -6.58, 231.22, 0.00, 0.00, 0.000, 0.000, 0.000, 10:47:46.940
131, 8.36, 233.57, 0.00, 0.00, 0.000, 0.000, 0.000, 10:47:46.941
132, 2.66, 235.52, 0.00, 0.00, 0.000, 0.000, 0.000, 10:47:46.941
133, 8.71, 241.75, 0.00, 0.00, 0.000, 0.000, 0.000, 10:47:46.957
134, -2.70, 238.53, 0.00, 0.00, 0.000, 0.000, 0.000, 10:47:46.957
135, 7.89, 241.69, 0.00, 0.00, 0.000, 0.000, 0.000, 10:47:46.971
136, 12.96, 239.22, 0.00, 0.00, 0.000, 0.000, 0.000, 10:47:46.971
137, -1.88, 237.23, 0.00, 0.00, 0.000, 0.000, 0.000, 10:47:46.971
138, -5.48, 232.68, 0.00, 0.00, 0.000, 0.000, 0.000, 10:47:46.971
139, 7.20, 234.75, 0.00, 0.00, 0.000, 0.000, 0.000, 10:47:46.986
140, 10.06, 234.14, 0.00, 0.00, 0.000, 0.000, 0.000, 10:47:46.986
141, -1.34, 228.48, 0.00, 0.00, 0.000, 0.000, 0.000, 10:47:47.001
142, -2.18, 232.73, 0.00, 0.00, 0.000, 0.000, 0.000, 10:47:47.001
143, 9.62, 233.91, 0.00, 0.00, 0.000, 0.000, 0.000, 10:47:47.002
144, 12.15, 235.85, 0.00, 0.00, 0.000, 0.000, 0.000, 10:47:47.002
145, -1.19, 230.88, 0.00, 0.00, 0.000, 0.000, 0.000, 10:47:47.016
146, 0.02, 231.76, 0.00, 0.00, 0.000, 0.000, 0.000, 10:47:47.016
147, 6.00, 230.96, 0.00, 0.00, 0.000, 0.000, 0.000, 10:47:47.031
148, 5.96, 228.78, 0.00, 0.00, 0.000, 0.000, 0.000, 10:47:47.031
149, -2.97, 231.53, 0.00, 0.00, 0.000, 0.000, 0.000, 10:47:47.031
150, 3.51, 234.01, 0.00, 0.00, 0.000, 0.000, 0.000, 10:47:47.032
151, 6.52, 238.46, 0.00, 0.00, 0.000, 0.000, 0.000, 10:47:47.046
152, 9.51, 233.21, 0.00, 0.00, 0.000, 0.000, 0.000, 10:47:47.046
153, -7.37, 232.37, 0.00, 0.00, 0.000, 0.000, 0.000, 10:47:47.063
154, -5.37, 226.09, 0.00, 0.00, 0.000, 0.000, 0.000, 10:47:47.063
155, 3.66, 228.49, 0.00, 0.00, 0.000, 0.000, 0.000, 10:47:47.063
156, 7.56, 226.03, 0.00, 0.00, 0.000, 0.000, 0.000, 10:47:47.063
157, -2.33, 226.79, 0.00, 0.00, 0.000, 0.000, 0.000, 10:47:47.079
158, -6.11, 223.73, 0.00, 0.00, 0.000, 0.000, 0.000, 10:47:47.079
159, 8.78, 223.33, 0.00, 0.00, 0.000, 0.000, 0.000, 10:47:47.092
160, 9.05, 232.07, 0.00, 0.00, 0.000, 0.000, 0.000, 10:47:47.092
161, -4.39, 224.58, 0.00, 0.00, 0.000, 0.000, 0.000, 10:47:47.105
162, -11.06, 222.50, 0.00, 0.00, 0.000, 0.000, 0.000, 10:47:47.106
163, 14.32, 229.30, 0.00, 0.00, 0.000, 0.000, 0.000, 10:47:47.107
164, 9.98, 226.53, 0.00, 0.00, 0.000, 0.000, 0.000, 10:47:47.107
165, -2.10, 224.91, 0.00, 0.00, 0.000, 0.000, 0.000, 10:47:47.121
166, -5.11, 222.88, 0.00, 0.00, 0.000, 0.000, 0.000, 10:47:47.121
167, 10.22, 224.80, 0.00, 0.00, 0.000, 0.000, 0.000, 10:47:47.121
168, 7.75, 224.25, 0.00, 0.00, 0.000, 0.000, 0.000, 10:47:47.121
169, 0.75, 228.05, 0.00, 0.00, 0.000, 0.000, 0.000, 10:47:47.136
170, -5.64, 226.53, 0.00, 0.00, 0.000, 0.000, 0.000, 10:47:47.136
171, 7.83, 225.89, 0.00, 0.00, 0.000, 0.000, 0.000, 10:47:47.152
172, 5.82, 230.58, 0.00, 0.00, 0.000, 0.000, 0.000, 10:47:47.152
173, -0.97, 230.58, 0.00, 0.00, 0.000, 0.000, 0.000, 10:47:47.152
174, -6.53, 226.13, 0.00, 0.00, 0.000, 0.000, 0.000, 10:47:47.153
175, 4.44, 228.79, 0.00, 0.00, 0.000, 0.000, 0.000, 10:47:47.167
176, 10.94, 233.77, 0.00, 0.00, 0.000, 0.000, 0.000, 10:47:47.167
177, 2.37, 227.57, 0.00, 0.00, 0.000, 0.000, 0.000, 10:47:47.181
178, -5.23, 229.18, 0.00, 0.00, 0.000, 0.000, 0.000, 10:47:47.181
179, 6.17, 225.60, 0.00, 0.00, 0.000, 0.000, 0.000, 10:47:47.181
180, 4.56, 231.65, 0.00, 0.00, 0.000, 0.000, 0.000, 10:47:47.181
181, -2.58, 231.21, 0.00, 0.00, 0.000, 0.000, 0.000, 10:47:47.203
182, -2.06, 228.03, 0.00, 0.00, 0.000, 0.000, 0.000, 10:47:47.203
183, 7.23, 226.85, 0.00, 0.00, 0.000, 0.000, 0.000, 10:47:47.211
184, 0.87, 229.99, 0.00, 0.00, 0.000, 0.000, 0.000, 10:47:47.212
185, 6.46, 234.60, 0.00, 0.00, 0.000, 0.000, 0.000, 10:47:47.212
186, -3.83, 234.08, 0.00, 0.00, 0.000, 0.000, 0.000, 10:47:47.212
187, 1.29, 228.16, 0.00, 0.00, 0.000, 0.000, 0.000, 10:47:47.226
188, 11.18, 234.58, 0.00, 0.00, 0.000, 0.000, 0.000, 10:47:47.226
189, -4.24, 228.32, 0.00, 0.00, 0.000, 0.000, 0.000, 10:47:47.241
190, -8.67, 232.30, 0.00, 0.00, 0.000, 0.000, 0.000, 10:47:47.241
191, 9.39, 229.70, 0.00, 0.00, 0.000, 0.000, 0.000, 10:47:47.241
192, 12.05, 234.20, 0.00, 0.00, 0.000, 0.000, 0.000, 10:47:47.241
193, -4.02, 234.10, 0.00, 0.00, 0.000, 0.000, 0.000, 10:47:47.256
194, -5.77, 230.04, 0.00, 0.00, 0.000, 0.000, 0.000, 10:47:47.256
195, 9.45, 231.80, 0.00, 0.00, 0.000, 0.000, 0.000, 10:47:47.271
196, 5.82, 234.64, 0.00, 0.00, 0.000, 0.000, 0.000, 10:47:47.271
197, 4.42, 235.08, 0.00, 0.00, 0.000, 0.000, 0.000, 10:47:47.272
198, -0.53, 233.43, 0.00, 0.00, 0.000, 0.000, 0.000, 10:47:47.272
199, 6.93, 233.48, 0.00, 0.00, 0.000, 0.000, 0.000, 10:47:47.286
200, 10.85, 234.57, 0.00, 0.00, 0.000, 0.000, 0.000, 10:47:47.286
0, -9.31, 236.74, 0.00, 0.00, 0.000, 0.000, 0.000, 10:47:47.287
1, -2.09, 231.43, 0.00, 0.00, 0.000, 0.000, 0.000, 10:47:47.301
2, 7.38, 235.57, 0.00, 0.00, 0.000, 0.000, 0.000, 10:47:47.301
3, 11.46, 234.51, 0.00, 0.00, 0.000, 0.000, 0.000, 10:47:47.316
4, 1.61, 236.53, 0.00, 0.00, 0.000, 0.000, 0.000, 10:47:47.316
5, -4.13, 234.07, 0.00, 0.00, 0.000, 0.000, 0.000, 10:47:47.316
6, 11.57, 238.57, 0.00, 0.00, 0.000, 0.000, 0.000, 10:47:47.316
7, 4.71, 233.88, 0.00, 0.00, 0.000, 0.000, 0.000, 10:47:47.331
8, 8.06, 233.36, 0.00, 0.00, 0.000, 0.000, 0.000, 10:47:47.331
9, -3.93, 241.07, 0.00, 0.00, 0.000, 0.000, 0.000, 10:47:47.347
10, 11.08, 243.16, 0.00, 0.00, 0.000, 0.000, 0.000, 10:47:47.347
11, 6.31, 240.20, 0.00, 0.00, 0.000, 0.000, 0.000, 10:47:47.347
12, 4.35, 238.01, 0.00, 0.00, 0.000, 0.000, 0.000, 10:47:47.347
13, -5.37, 235.37, 0.00, 0.00, 0.000, 0.000, 0.000, 10:47:47.361
14, 10.41, 234.90, 0.00, 0.00, 0.000, 0.000, 0.000, 10:47:47.361
15, 10.62, 233.00, 0.00, 0.00, 0.000, 0.000, 0.000, 10:47:47.376
16, -1.65, 236.42, 0.00, 0.00, 0.000, 0.000, 0.000, 10:47:47.376
17, -4.64, 230.91, 0.00, 0.00, 0.000, 0.000, 0.000, 10:47:47.376
18, 6.77, 230.74, 0.00, 0.00, 0.000, 0.000, 0.000, 10:47:47.376
19, 11.04, 233.91, 0.00, 0.00, 0.000, 0.000, 0.000, 10:47:47.392
20, 1.22, 234.31, 0.00, 0.00, 0.000, 0.000, 0.000, 10:47:47.392
21, -12.82, 227.86, 0.00, 0.00, 0.000, 0.000, 0.000, 10:47:47.406
22, 19.93, 234.95, 0.00, 0.00, 0.000, 0.000, 0.000, 10:47:47.406
23, 13.47, 236.39, 0.00, 0.00, 0.000, 0.000, 0.000, 10:47:47.408
24, -6.55, 232.14, 0.00, 0.00, 0.000, 0.000, 0.000, 10:47:47.408
25, -4.54, 232.22, 0.00, 0.00, 0.000, 0.000, 0.000, 10:47:47.421
26, 11.89, 230.77, 0.00, 0.00, 0.000, 0.000, 0.000, 10:47:47.421
27, 15.12, 232.59, 0.00, 0.00, 0.000, 0.000, 0.000, 10:47:47.436
28, -0.23, 228.84, 0.00, 0.00, 0.000, 0.000, 0.000, 10:47:47.436
29, -9.86, 227.33, 0.00, 0.00, 0.000, 0.000, 0.000, 10:47:47.436
30, 6.24, 230.86, 0.00, 0.00, 0.000, 0.000, 0.000, 10:47:47.436
31, 11.59, 233.93, 0.00, 0.00, 0.000, 0.000, 0.000, 10:47:47.451
32, -0.26, 236.00, 0.00, 0.00, 0.000, 0.000, 0.000, 10:47:47.451
33, -8.01, 233.95, 0.00, 0.00, 0.000, 0.000, 0.000, 10:47:47.466
34, 10.99, 239.13, 0.00, 0.00, 0.000, 0.000, 0.000, 10:47:47.466
35, 12.67, 239.51, 0.00, 0.00, 0.000, 0.000, 0.000, 10:47:47.466
36, 0.01, 237.92, 0.00, 0.00, 0.000, 0.000, 0.000, 10:47:47.466
37, -6.94, 235.61, 0.00, 0.00, 0.000, 0.000, 0.000, 10:47:47.481
38, 5.44, 239.16, 0.00, 0.00, 0.000, 0.000, 0.000, 10:47:47.481
39, 9.64, 240.04, 0.00, 0.00, 0.000, 0.000, 0.000, 10:47:47.496
40, -1.63, 241.79, 0.00, 0.00, 0.000, 0.000, 0.000, 10:47:47.496
41, -8.29, 233.33, 0.00, 0.00, 0.000, 0.000, 0.000, 10:47:47.496
42, 6.65, 236.71, 0.00, 0.00, 0.000, 0.000, 0.000, 10:47:47.496
43, 10.78, 236.72, 0.00, 0.00, 0.000, 0.000, 0.000, 10:47:47.512
44, -3.12, 233.26, 0.00, 0.00, 0.000, 0.000, 0.000, 10:47:47.512
45, 0.75, 234.62, 0.00, 0.00, 0.000, 0.000, 0.000, 10:47:47.526
46, 9.26, 237.44, 0.00, 0.00, 0.000, 0.000, 0.000, 10:47:47.526
47, 8.66, 240.49, 0.00, 0.00, 0.000, 0.000, 0.000, 10:47:47.526
48, -1.33, 238.96, 0.00, 0.00, 0.000, 0.000, 0.000, 10:47:47.526
49, -7.88, 235.22, 0.00, 0.00, 0.000, 0.000, 0.000, 10:47:47.541
50, 12.51, 235.18, 0.00, 0.00, 0.000, 0.000, 0.000, 10:47:47.541
51, 3.43, 238.27, 0.00, 0.00, 0.000, 0.000, 0.000, 10:47:47.556
52, 5.25, 240.32, 0.00, 0.00, 0.000, 0.000, 0.000, 10:47:47.556
53, -5.42, 236.16, 0.00, 0.00, 0.000, 0.000, 0.000, 10:47:47.556
54, 4.65, 235.53, 0.00, 0.00, 0.000, 0.000, 0.000, 10:47:47.556
55, 8.24, 235.00, 0.00, 0.00, 0.000, 0.000, 0.000, 10:47:47.571
56, -0.31, 234.31, 0.00, 0.00, 0.000, 0.000, 0.000, 10:47:47.571
57, -3.69, 231.29, 0.00, 0.00, 0.000, 0.000, 0.000, 10:47:47.586
58, 3.59, 233.59, 0.00, 0.00, 0.000, 0.000, 0.000, 10:47:47.586
59, 9.36, 235.00, 0.00, 0.00, 0.000, 0.000, 0.000, 10:47:47.586
60, -1.60, 237.24, 0.00, 0.00, 0.000, 0.000, 0.000, 10:47:47.586
61, -5.83, 231.18, 0.00, 0.00, 0.000, 0.000, 0.000, 10:47:47.601
62, 9.55, 234.19, 0.00, 0.00, 0.000, 0.000, 0.000, 10:47:47.602
63, 18.08, 236.14, 0.00, 0.00, 0.000, 0.000, 0.000, 10:47:47.616
64, 0.53, 235.52, 0.00, 0.00, 0.000, 0.000, 0.000, 10:47:47.616
65, 0.04, 236.35, 0.00, 0.00, 0.000, 0.000, 0.000, 10:47:47.616
66, 9.04, 236.69, 0.00, 0.00, 0.000, 0.000, 0.000, 10:47:47.616
67, 12.59, 237.20, 0.00, 0.00, 0.000, 0.000, 0.000, 10:47:47.631
68, -0.61, 236.00, 0.00, 0.00, 0.000, 0.000, 0.000, 10:47:47.631
69, -7.46, 234.78, 0.00, 0.00, 0.000, 0.000, 0.000, 10:47:47.648
70, 5.42, 236.02, 0.00, 0.00, 0.000, 0.000, 0.000, 10:47:47.648
71, 4.50, 236.08, 0.00, 0.00, 0.000, 0.000, 0.000, 10:47:47.654
72, 4.26, 236.34, 0.00, 0.00, 0.000, 0.000, 0.000, 10:47:47.654
73, -2.06, 233.38, 0.00, 0.00, 0.000, 0.000, 0.000, 10:47:47.661
74, 5.53, 235.15, 0.00, 0.00, 0.000, 0.000, 0.000, 10:47:47.661
75, 10.81, 235.38, 0.00, 0.00, 0.000, 0.000, 0.000, 10:47:47.676
76, -0.48, 233.45, 0.00, 0.00, 0.000, 0.000, 0.000, 10:47:47.676
77, -6.43, 231.19, 0.00, 0.00, 0.000, 0.000, 0.000, 10:47:47.676
78, 4.44, 233.48, 0.00, 0.00, 0.000, 0.000, 0.000, 10:47:47.677
79, 15.10, 233.08, 0.00, 0.00, 0.000, 0.000, 0.000, 10:47:47.691
80, 3.14, 234.99, 0.00, 0.00, 0.000, 0.000, 0.000, 10:47:47.691
81, -5.31, 234.99, 0.00, 0.00, 0.000, 0.000, 0.000, 10:47:47.706
82, 0.59, 235.82, 0.00, 0.00, 0.000, 0.000, 0.000, 10:47:47.706
83, 7.03, 235.73, 0.00, 0.00, 0.000, 0.000, 0.000, 10:47:47.706
84, -3.93, 237.74, 0.00, 0.00, 0.000, 0.000, 0.000, 10:47:47.706
85, -2.66, 236.82, 0.00, 0.00, 0.000, 0.000, 0.000, 10:47:47.722
86, 9.25, 238.09, 0.00, 0.00, 0.000, 0.000, 0.000, 10:47:47.723
87, 5.60, 236.71, 0.00, 0.00, 0.000, 0.000, 0.000, 10:47:47.736
88, -1.37, 231.26, 0.00, 0.00, 0.000, 0.000, 0.000, 10:47:47.736
89, -1.72, 230.61, 0.00, 0.00, 0.000, 0.000, 0.000, 10:47:47.737
90, 7.96, 230.43, 0.00, 0.00, 0.000, 0.000, 0.000, 10:47:47.737
91, 9.22, 232.67, 0.00, 0.00, 0.000, 0.000, 0.000, 10:47:47.751
92, 1.62, 231.15, 0.00, 0.00, 0.000, 0.000, 0.000, 10:47:47.751
93, -0.91, 229.79, 0.00, 0.00, 0.000, 0.000, 0.000, 10:47:47.766
94, 7.27, 227.72, 0.00, 0.00, 0.000, 0.000, 0.000, 10:47:47.766
95, 7.83, 223.98, 0.00, 0.00, 0.000, 0.000, 0.000, 10:47:47.766
96, 10.98, 238.10, 0.00, 0.00, 0.000, 0.000, 0.000, 10:47:47.766
97, -6.10, 231.17, 0.00, 0.00, 0.000, 0.000, 0.000, 10:47:47.781
98, 5.65, 233.60, 0.00, 0.00, 0.000, 0.000, 0.000, 10:47:47.781
99, 7.09, 234.88, 0.00, 0.00, 0.000, 0.000, 0.000, 10:47:47.796
100, 0.67, 235.48, 0.00, 0.00, 0.000, 0.000, 0.000, 10:47:47.796
101, -10.02, 232.06, 0.00, 0.00, 0.000, 0.000, 0.000, 10:47:47.796
102, 14.17, 232.72, 0.00, 0.00, 0.000, 0.000, 0.000, 10:47:47.796
103, 9.65, 237.07, 0.00, 0.00, 0.000, 0.000, 0.000, 10:47:47.811
104, 4.44, 233.35, 0.00, 0.00, 0.000, 0.000, 0.000, 10:47:47.811
105, -6.83, 233.15, 0.00, 0.00, 0.000, 0.000, 0.000, 10:47:47.826
106, 7.16, 232.85, 0.00, 0.00, 0.000, 0.000, 0.000, 10:47:47.826
107, 8.08, 234.16, 0.00, 0.00, 0.000, 0.000, 0.000, 10:47:47.826
108, 0.82, 236.65, 0.00, 0.00, 0.000, 0.000, 0.000, 10:47:47.827
109, -4.14, 235.91, 0.00, 0.00, 0.000, 0.000, 0.000, 10:47:47.841
110, 5.61, 236.22, 0.00, 0.00, 0.000, 0.000, 0.000, 10:47:47.841
111, 13.17, 234.36, 0.00, 0.00, 0.000, 0.000, 0.000, 10:47:47.856
112, 0.43, 235.95, 0.00, 0.00, 0.000, 0.000, 0.000, 10:47:47.857
113, -5.20, 233.08, 0.00, 0.00, 0.000, 0.000, 0.000, 10:47:47.857
114, 4.28, 233.72, 0.00, 0.00, 0.000, 0.000, 0.000, 10:47:47.857
115, 7.35, 237.06, 0.00, 0.00, 0.000, 0.000, 0.000, 10:47:47.870
116, 0.15, 236.18, 0.00, 0.00, 0.000, 0.000, 0.000, 10:47:47.870
117, -5.36, 234.22, 0.00, 0.00, 0.000, 0.000, 0.000, 10:47:47.886
118, 0.82, 235.21, 0.00, 0.00, 0.000, 0.000, 0.000, 10:47:47.886
119, 10.97, 239.77, 0.00, 0.00, 0.000, 0.000, 0.000, 10:47:47.886
120, -0.83, 236.79, 0.00, 0.00, 0.000, 0.000, 0.000, 10:47:47.886
121, -10.28, 239.22, 0.00, 0.00, 0.000, 0.000, 0.000, 10:47:47.901
122, 10.90, 241.70, 0.00, 0.00, 0.000, 0.000, 0.000, 10:47:47.901
123, 8.39, 244.14, 0.00, 0.00, 0.000, 0.000, 0.000, 10:47:47.916
124, 2.10, 245.58, 0.00, 0.00, 0.000, 0.000, 0.000, 10:47:47.916
125, -5.09, 240.83, 0.00, 0.00, 0.000, 0.000, 0.000, 10:47:47.916
126, 3.68, 240.82, 0.00, 0.00, 0.000, 0.000, 0.000, 10:47:47.916
127, 8.68, 243.34, 0.00, 0.00, 0.000, 0.000, 0.000, 10:47:47.931
128, -5.23, 240.54, 0.00, 0.00, 0.000, 0.000, 0.000, 10:47:47.931
129, -9.61, 235.74, 0.00, 0.00, 0.000, 0.000, 0.000, 10:47:47.947
130, 11.14, 242.11, 0.00, 0.00, 0.000, 0.000, 0.000, 10:47:47.947
131, 8.53, 244.50, 0.00, 0.00, 0.000, 0.000, 0.000, 10:47:47.947
132, 0.33, 240.93, 0.00, 0.00, 0.000, 0.000, 0.000, 10:47:47.947
133, -10.42, 235.38, 0.00, 0.00, 0.000, 0.000, 0.000, 10:47:47.961
134, 9.27, 238.34, 0.00, 0.00, 0.000, 0.000, 0.000, 10:47:47.961
135, 14.52, 245.21, 0.00, 0.00, 0.000, 0.000, 0.000, 10:47:47.975
136, 3.54, 239.45, 0.00, 0.00, 0.000, 0.000, 0.000, 10:47:47.976
137, -4.67, 242.41, 0.00, 0.00, 0.000, 0.000, 0.000, 10:47:47.976
138, 2.56, 239.65, 0.00, 0.00, 0.000, 0.000, 0.000, 10:47:47.976
139, 13.96, 243.77, 0.00, 0.00, 0.000, 0.000, 0.000, 10:47:47.992
140, -6.40, 237.38, 0.00, 0.00, 0.000, 0.000, 0.000, 10:47:47.992
141, 1.43, 237.49, 0.00, 0.00, 0.000, 0.000, 0.000, 10:47:48.005
142, 5.31, 237.73, 0.00, 0.00, 0.000, 0.000, 0.000, 10:47:48.006
143, 12.96, 237.22, 0.00, 0.00, 0.000, 0.000, 0.000, 10:47:48.006
144, -1.25, 238.35, 0.00, 0.00, 0.000, 0.000, 0.000, 10:47:48.006
145, -5.10, 240.34, 0.00, 0.00, 0.000, 0.000, 0.000, 10:47:48.021
146, 3.99, 232.89, 0.00, 0.00, 0.000, 0.000, 0.000, 10:47:48.021
147, 7.94, 238.75, 0.00, 0.00, 0.000, 0.000, 0.000, 10:47:48.036
148, 3.91, 240.54, 0.00, 0.00, 0.000, 0.000, 0.000, 10:47:48.037
149, -7.19, 237.07, 0.00, 0.00, 0.000, 0.000, 0.000, 10:47:48.037
150, 5.73, 237.44, 0.00, 0.00, 0.000, 0.000, 0.000, 10:47:48.037
151, 8.93, 238.62, 0.00, 0.00, 0.000, 0.000, 0.000, 10:47:48.050
152, -2.40, 238.60, 0.00, 0.00, 0.000, 0.000, 0.000, 10:47:48.051
153, -5.77, 236.86, 0.00, 0.00, 0.000, 0.000, 0.000, 10:47:48.068
154, 2.10, 237.38, 0.00, 0.00, 0.000, 0.000, 0.000, 10:47:48.069
155, 13.30, 236.19, 0.00, 0.00, 0.000, 0.000, 0.000, 10:47:48.069
156, 3.65, 233.75, 0.00, 0.00, 0.000, 0.000, 0.000, 10:47:48.069
157, -14.92, 230.86, 0.00, 0.00, 0.000, 0.000, 0.000, 10:47:48.082
158, 13.42, 233.46, 0.00, 0.00, 0.000, 0.000, 0.000, 10:47:48.082
159, 9.25, 238.15, 0.00, 0.00, 0.000, 0.000, 0.000, 10:47:48.097
160, 0.13, 241.12, 0.00, 0.00, 0.000, 0.000, 0.000, 10:47:48.097
161, -4.99, 235.23, 0.00, 0.00, 0.000, 0.000, 0.000, 10:47:48.097
162, 5.15, 236.58, 0.00, 0.00, 0.000, 0.000, 0.000, 10:47:48.097
163, 5.61, 238.12, 0.00, 0.00, 0.000, 0.000, 0.000, 10:47:48.110
164, 1.86, 238.99, 0.00, 0.00, 0.000, 0.000, 0.000, 10:47:48.110
165, -7.96, 237.56, 0.00, 0.00, 0.000, 0.000, 0.000, 10:47:48.126
166, 1.26, 235.08, 0.00, 0.00, 0.000, 0.000, 0.000, 10:47:48.127
167, 14.28, 241.57, 0.00, 0.00, 0.000, 0.000, 0.000, 10:47:48.133
168, -6.78, 237.78, 0.00, 0.00, 0.000, 0.000, 0.000, 10:47:48.133
169, -8.29, 238.42, 0.00, 0.00, 0.000, 0.000, 0.000, 10:47:48.140
170, 9.85, 237.82, 0.00, 0.00, 0.000, 0.000, 0.000, 10:47:48.140
171, 6.77, 238.43, 0.00, 0.00, 0.000, 0.000, 0.000, 10:47:48.157
172, -9.39, 232.67, 0.00, 0.00, 0.000, 0.000, 0.000, 10:47:48.157
173, -2.52, 235.42, 0.00, 0.00, 0.000, 0.000, 0.000, 10:47:48.157
174, 8.18, 241.87, 0.00, 0.00, 0.000, 0.000, 0.000, 10:47:48.157
175, 10.89, 241.41, 0.00, 0.00, 0.000, 0.000, 0.000, 10:47:48.172
176, -0.19, 240.94, 0.00, 0.00, 0.000, 0.000, 0.000, 10:47:48.172
177, -0.96, 243.01, 0.00, 0.00, 0.000, 0.000, 0.000, 10:47:48.187
178, 8.04, 242.21, 0.00, 0.00, 0.000, 0.000, 0.000, 10:47:48.187
179, 13.86, 240.48, 0.00, 0.00, 0.000, 0.000, 0.000, 10:47:48.187
180, -1.85, 237.38, 0.00, 0.00, 0.000, 0.000, 0.000, 10:47:48.187
181, -6.48, 236.72, 0.00, 0.00, 0.000, 0.000, 0.000, 10:47:48.201
182, 4.71, 235.08, 0.00, 0.00, 0.000, 0.000, 0.000, 10:47:48.201
183, 7.69, 236.38, 0.00, 0.00, 0.000, 0.000, 0.000, 10:47:48.216
184, -0.34, 238.87, 0.00, 0.00, 0.000, 0.000, 0.000, 10:47:48.216
185, -7.25, 234.76, 0.00, 0.00, 0.000, 0.000, 0.000, 10:47:48.217
186, 8.28, 232.98, 0.00, 0.00, 0.000, 0.000, 0.000, 10:47:48.217
187, 11.78, 235.86, 0.00, 0.00, 0.000, 0.000, 0.000, 10:47:48.231
188, 0.07, 238.20, 0.00, 0.00, 0.000, 0.000, 0.000, 10:47:48.231
189, -7.10, 233.23, 0.00, 0.00, 0.000, 0.000, 0.000, 10:47:48.247
190, 2.40, 232.40, 0.00, 0.00, 0.000, 0.000, 0.000, 10:47:48.247
191, 19.30, 237.17, 0.00, 0.00, 0.000, 0.000, 0.000, 10:47:48.247
192, -0.45, 235.16, 0.00, 0.00, 0.000, 0.000, 0.000, 10:47:48.247
193, -8.02, 232.54, 0.00, 0.00, 0.000, 0.000, 0.000, 10:47:48.261
194, 6.70, 240.15, 0.00, 0.00, 0.000, 0.000, 0.000, 10:47:48.261
195, 10.07, 241.71, 0.00, 0.00, 0.000, 0.000, 0.000, 10:47:48.276
196, -3.24, 241.17, 0.00, 0.00, 0.000, 0.000, 0.000, 10:47:48.276
197, -6.93, 236.07, 0.00, 0.00, 0.000, 0.000, 0.000, 10:47:48.276
198, 7.91, 240.92, 0.00, 0.00, 0.000, 0.000, 0.000, 10:47:48.276
199, 12.94, 243.63, 0.00, 0.00, 0.000, 0.000, 0.000, 10:47:48.291
200, 0.70, 241.87, 0.00, 0.00, 0.000, 0.000, 0.000, 10:47:48.291
0, -6.01, 239.43, 0.00, 0.00, 0.000, 0.000, 0.000, 10:47:48.291
1, -0.36, 241.53, 0.00, 0.00, 0.000, 0.000, 0.000, 10:47:48.307
2, 16.03, 242.63, 0.00, 0.00, 0.000, 0.000, 0.000, 10:47:48.307
3, -5.81, 234.99, 0.00, 0.00, 0.000, 0.000, 0.000, 10:47:48.321
4, -9.05, 238.68, 0.00, 0.00, 0.000, 0.000, 0.000, 10:47:48.322
5, 10.65, 241.98, 0.00, 0.00, 0.000, 0.000, 0.000, 10:47:48.322
6, 8.29, 243.13, 0.00, 0.00, 0.000, 0.000, 0.000, 10:47:48.322
7, -4.14, 246.50, 0.00, 0.00, 0.000, 0.000, 0.000, 10:47:48.335
8, -2.76, 241.83, 0.00, 0.00, 0.000, 0.000, 0.000, 10:47:48.335
9, 7.10, 242.12, 0.00, 0.00, 0.000, 0.000, 0.000, 10:47:48.350
10, 4.87, 241.73, 0.00, 0.00, 0.000, 0.000, 0.000, 10:47:48.350
11, 2.70, 240.31, 0.00, 0.00, 0.000, 0.000, 0.000, 10:47:48.351
12, -8.12, 237.06, 0.00, 0.00, 0.000, 0.000, 0.000, 10:47:48.352
13, 4.38, 234.57, 0.00, 0.00, 0.000, 0.000, 0.000, 10:47:48.366
14, 22.49, 237.83, 0.00, 0.00, 0.000, 0.000, 0.000, 10:47:48.366
15, -1.80, 234.57, 0.00, 0.00, 0.000, 0.000, 0.000, 10:47:48.382
16, -5.85, 234.61, 0.00, 0.00, 0.000, 0.000, 0.000, 10:47:48.382
17, 2.70, 231.08, 0.00, 0.00, 0.000, 0.000, 0.000, 10:47:48.382
18, 8.01, 234.42, 0.00, 0.00, 0.000, 0.000, 0.000, 10:47:48.382
19, -0.25, 237.04, 0.00, 0.00, 0.000, 0.000, 0.000, 10:47:48.396
20, -1.31, 237.70, 0.00, 0.00, 0.000, 0.000, 0.000, 10:47:48.396
21, 3.18, 233.44, 0.00, 0.00, 0.000, 0.000, 0.000, 10:47:48.411
22, 8.10, 239.79, 0.00, 0.00, 0.000, 0.000, 0.000, 10:47:48.411
23, 5.19, 238.95, 0.00, 0.00, 0.000, 0.000, 0.000, 10:47:48.411
24, -5.62, 237.86, 0.00, 0.00, 0.000, 0.000, 0.000, 10:47:48.411
25, 3.35, 238.24, 0.00, 0.00, 0.000, 0.000, 0.000, 10:47:48.426
26, 17.37, 238.90, 0.00, 0.00, 0.000, 0.000, 0.000, 10:47:48.426
27, 0.23, 236.94, 0.00, 0.00, 0.000, 0.000, 0.000, 10:47:48.441
28, -11.80, 232.50, 0.00, 0.00, 0.000, 0.000, 0.000, 10:47:48.441
29, 4.09, 234.03, 0.00, 0.00, 0.000, 0.000, 0.000, 10:47:48.441
30, 8.04, 238.71, 0.00, 0.00, 0.000, 0.000, 0.000, 10:47:48.441
31, -5.25, 237.05, 0.00, 0.00, 0.000, 0.000, 0.000, 10:47:48.456
32, -6.62, 235.31, 0.00, 0.00, 0.000, 0.000, 0.000, 10:47:48.456
33, 5.71, 233.48, 0.00, 0.00, 0.000, 0.000, 0.000, 10:47:48.470
34, 11.49, 237.33, 0.00, 0.00, 0.000, 0.000, 0.000, 10:47:48.470
35, -4.67, 235.60, 0.00, 0.00, 0.000, 0.000, 0.000, 10:47:48.471
36, -2.83, 233.94, 0.00, 0.00, 0.000, 0.000, 0.000, 10:47:48.471
37, 12.18, 240.27, 0.00, 0.00, 0.000, 0.000, 0.000, 10:47:48.486
38, 15.07, 243.59, 0.00, 0.00, 0.000, 0.000, 0.000, 10:47:48.486
39, 2.61, 238.37, 0.00, 0.00, 0.000, 0.000, 0.000, 10:47:48.501
40, -6.70, 230.20, 0.00, 0.00, 0.000, 0.000, 0.000, 10:47:48.501
41, 7.48, 233.88, 0.00, 0.00, 0.000, 0.000, 0.000, 10:47:48.501
42, 11.58, 239.68, 0.00, 0.00, 0.000, 0.000, 0.000, 10:47:48.502
43, 0.18, 236.86, 0.00, 0.00, 0.000, 0.000, 0.000, 10:47:48.516
44, -4.33, 234.53, 0.00, 0.00, 0.000, 0.000, 0.000, 10:47:48.516
45, 7.06, 230.94, 0.00, 0.00, 0.000, 0.000, 0.000, 10:47:48.531
46, 12.43, 233.05, 0.00, 0.00, 0.000, 0.000, 0.000, 10:47:48.531
47, -1.65, 230.66, 0.00, 0.00, 0.000, 0.000, 0.000, 10:47:48.531
48, -8.17, 229.24, 0.00, 0.00, 0.000, 0.000, 0.000, 10:47:48.531
49, 4.56, 231.36, 0.00, 0.00, 0.000, 0.000, 0.000, 10:47:48.546
50, 17.67, 235.72, 0.00, 0.00, 0.000, 0.000, 0.000, 10:47:48.546
51, -2.80, 233.68, 0.00, 0.00, 0.000, 0.000, 0.000, 10:47:48.561
52, -3.78, 234.16, 0.00, 0.00, 0.000, 0.000, 0.000, 10:47:48.561
53, 5.65, 232.86, 0.00, 0.00, 0.000, 0.000, 0.000, 10:47:48.568
54, 13.15, 233.80, 0.00, 0.00, 0.000, 0.000, 0.000, 10:47:48.568
55, -0.07, 234.40, 0.00, 0.00, 0.000, 0.000, 0.000, 10:47:48.576
56, -7.35, 232.11, 0.00, 0.00, 0.000, 0.000, 0.000, 10:47:48.576
57, 6.65, 227.66, 0.00, 0.00, 0.000, 0.000, 0.000, 10:47:48.591
58, 13.93, 229.81, 0.00, 0.00, 0.000, 0.000, 0.000, 10:47:48.591
59, 2.28, 227.54, 0.00, 0.00, 0.000, 0.000, 0.000, 10:47:48.591
60, -3.67, 227.64, 0.00, 0.00, 0.000, 0.000, 0.000, 10:47:48.591
61, 7.09, 231.25, 0.00, 0.00, 0.000, 0.000, 0.000, 10:47:48.605
62, 10.58, 228.41, 0.00, 0.00, 0.000, 0.000, 0.000, 10:47:48.605
63, -1.16, 227.57, 0.00, 0.00, 0.000, 0.000, 0.000, 10:47:48.621
64, 1.48, 229.05, 0.00, 0.00, 0.000, 0.000, 0.000, 10:47:48.621
65, 3.01, 228.50, 0.00, 0.00, 0.000, 0.000, 0.000, 10:47:48.621
66, 11.56, 232.67, 0.00, 0.00, 0.000, 0.000, 0.000, 10:47:48.622
67, -0.23, 229.13, 0.00, 0.00, 0.000, 0.000, 0.000, 10:47:48.636
68, -5.10, 228.67, 0.00, 0.00, 0.000, 0.000, 0.000, 10:47:48.636
69, 7.69, 229.20, 0.00, 0.00, 0.000, 0.000, 0.000, 10:47:48.650
70, 8.80, 227.41, 0.00, 0.00, 0.000, 0.000, 0.000, 10:47:48.650
71, 5.74, 235.64, 0.00, 0.00, 0.000, 0.000, 0.000, 10:47:48.652
72, -4.79, 231.57, 0.00, 0.00, 0.000, 0.000, 0.000, 10:47:48.652
73, 4.38, 228.72, 0.00, 0.00, 0.000, 0.000, 0.000, 10:47:48.666
74, 14.22, 229.82, 0.00, 0.00, 0.000, 0.000, 0.000, 10:47:48.666
75, 0.93, 226.73, 0.00, 0.00, 0.000, 0.000, 0.000, 10:47:48.681
76, -5.70, 225.52, 0.00, 0.00, 0.000, 0.000, 0.000, 10:47:48.681
77, 5.09, 232.25, 0.00, 0.00, 0.000, 0.000, 0.000, 10:47:48.681
78, 7.17, 229.57, 0.00, 0.00, 0.000, 0.000, 0.000, 10:47:48.682
79, 2.98, 226.75, 0.00, 0.00, 0.000, 0.000, 0.000, 10:47:48.696
80, -7.60, 226.28, 0.00, 0.00, 0.000, 0.000, 0.000, 10:47:48.696
81, 8.10, 230.52, 0.00, 0.00, 0.000, 0.000, 0.000, 10:47:48.710
82, 9.74, 231.60, 0.00, 0.00, 0.000, 0.000, 0.000, 10:47:48.711
83, -1.88, 231.41, 0.00, 0.00, 0.000, 0.000, 0.000, 10:47:48.711
84, -2.98, 228.50, 0.00, 0.00, 0.000, 0.000, 0.000, 10:47:48.711
85, 2.66, 225.22, 0.00, 0.00, 0.000, 0.000, 0.000, 10:47:48.726
86, 11.18, 229.41, 0.00, 0.00, 0.000, 0.000, 0.000, 10:47:48.727
87, 0.39, 228.27, 0.00, 0.00, 0.000, 0.000, 0.000, 10:47:48.740
88, -7.65, 227.87, 0.00, 0.00, 0.000, 0.000, 0.000, 10:47:48.740
89, 1.75, 228.57, 0.00, 0.00, 0.000, 0.000, 0.000, 10:47:48.741
90, 7.91, 230.52, 0.00, 0.00, 0.000, 0.000, 0.000, 10:47:48.741
91, -0.80, 225.52, 0.00, 0.00, 0.000, 0.000, 0.000, 10:47:48.756
92, -7.46, 223.81, 0.00, 0.00, 0.000, 0.000, 0.000, 10:47:48.756
93, 4.21, 223.70, 0.00, 0.00, 0.000, 0.000, 0.000, 10:47:48.771
94, 8.39, 230.22, 0.00, 0.00, 0.000, 0.000, 0.000, 10:47:48.771
95, 1.76, 234.41, 0.00, 0.00, 0.000, 0.000, 0.000, 10:47:48.771
96, -8.05, 230.99, 0.00, 0.00, 0.000, 0.000, 0.000, 10:47:48.771
97, 6.09, 231.17, 0.00, 0.00, 0.000, 0.000, 0.000, 10:47:48.786
98, 15.68, 229.70, 0.00, 0.00, 0.000, 0.000, 0.000, 10:47:48.786
99, 1.44, 229.11, 0.00, 0.00, 0.000, 0.000, 0.000, 10:47:48.801
100, -6.84, 231.24, 0.00, 0.00, 0.000, 0.000, 0.000, 10:47:48.801
101, 0.49, 226.71, 0.00, 0.00, 0.000, 0.000, 0.000, 10:47:48.802
102, 17.38, 230.48, 0.00, 0.00, 0.000, 0.000, 0.000, 10:47:48.802
103, -5.25, 228.17, 0.00, 0.00, 0.000, 0.000, 0.000, 10:47:48.816
104, -1.93, 229.73, 0.00, 0.00, 0.000, 0.000, 0.000, 10:47:48.816
105, 5.48, 230.79, 0.00, 0.00, 0.000, 0.000, 0.000, 10:47:48.831
106, 11.47, 235.26, 0.00, 0.00, 0.000, 0.000, 0.000, 10:47:48.832
107, 0.18, 233.70, 0.00, 0.00, 0.000, 0.000, 0.000, 10:47:48.838
108, -8.91, 229.47, 0.00, 0.00, 0.000, 0.000, 0.000, 10:47:48.838
109, 6.06, 229.83, 0.00, 0.00, 0.000, 0.000, 0.000, 10:47:48.846
110, 14.36, 228.80, 0.00, 0.00, 0.000, 0.000, 0.000, 10:47:48.846
111, -1.62, 225.36, 0.00, 0.00, 0.000, 0.000, 0.000, 10:47:48.861
112, -4.69, 227.10, 0.00, 0.00, 0.000, 0.000, 0.000, 10:47:48.861
113, 4.47, 225.72, 0.00, 0.00, 0.000, 0.000, 0.000, 10:47:48.862
114, 14.94, 228.96, 0.00, 0.00, 0.000, 0.000, 0.000, 10:47:48.862
115, -1.14, 227.51, 0.00, 0.00, 0.000, 0.000, 0.000, 10:47:48.876
116, -7.95, 225.71, 0.00, 0.00, 0.000, 0.000, 0.000, 10:47:48.876
117, 5.70, 226.58, 0.00, 0.00, 0.000, 0.000, 0.000, 10:47:48.891
118, 13.62, 232.86, 0.00, 0.00, 0.000, 0.000, 0.000, 10:47:48.891
119, 1.92, 231.43, 0.00, 0.00, 0.000, 0.000, 0.000, 10:47:48.891
120, -5.54, 227.11, 0.00, 0.00, 0.000, 0.000, 0.000, 10:47:48.891
121, 8.12, 231.77, 0.00, 0.00, 0.000, 0.000, 0.000, 10:47:48.906
122, 14.54, 231.62, 0.00, 0.00, 0.000, 0.000, 0.000, 10:47:48.906
123, 2.68, 232.60, 0.00, 0.00, 0.000, 0.000, 0.000, 10:47:48.921
124, -8.09, 231.42, 0.00, 0.00, 0.000, 0.000, 0.000, 10:47:48.921
125, 2.44, 231.92, 0.00, 0.00, 0.000, 0.000, 0.000, 10:47:48.921
126, 9.61, 230.10, 0.00, 0.00, 0.000, 0.000, 0.000, 10:47:48.921
127, 0.59, 232.18, 0.00, 0.00, 0.000, 0.000, 0.000, 10:47:48.936
128, -4.60, 227.22, 0.00, 0.00, 0.000, 0.000, 0.000, 10:47:48.936
129, 2.81, 229.76, 0.00, 0.00, 0.000, 0.000, 0.000, 10:47:48.950
130, 8.40, 228.16, 0.00, 0.00, 0.000, 0.000, 0.000, 10:47:48.950
131, -1.34, 231.86, 0.00, 0.00, 0.000, 0.000, 0.000, 10:47:48.951
132, -3.68, 230.13, 0.00, 0.00, 0.000, 0.000, 0.000, 10:47:48.952
133, -3.72, 223.81, 0.00, 0.00, 0.000, 0.000, 0.000, 10:47:48.966
134, 26.70, 228.53, 0.00, 0.00, 0.000, 0.000, 0.000, 10:47:48.966
135, 1.25, 228.14, 0.00, 0.00, 0.000, 0.000, 0.000, 10:47:48.981
136, -10.01, 230.42, 0.00, 0.00, 0.000, 0.000, 0.000, 10:47:48.981
137, 3.32, 232.17, 0.00, 0.00, 0.000, 0.000, 0.000, 10:47:48.981
138, 14.39, 231.52, 0.00, 0.00, 0.000, 0.000, 0.000, 10:47:48.981
139, -10.67, 226.03, 0.00, 0.00, 0.000, 0.000, 0.000, 10:47:48.996
140, 4.03, 233.61, 0.00, 0.00, 0.000, 0.000, 0.000, 10:47:48.996
141, 6.51, 232.76, 0.00, 0.00, 0.000, 0.000, 0.000, 10:47:49.011
142, 9.66, 236.12, 0.00, 0.00, 0.000, 0.000, 0.000, 10:47:49.011
143, 2.14, 234.88, 0.00, 0.00, 0.000, 0.000, 0.000, 10:47:49.011
144, -5.92, 234.25, 0.00, 0.00, 0.000, 0.000, 0.000, 10:47:49.011
145, -0.14, 234.08, 0.00, 0.00, 0.000, 0.000, 0.000, 10:47:49.026
146, 8.60, 233.01, 0.00, 0.00, 0.000, 0.000, 0.000, 10:47:49.026
147, -0.84, 227.43, 0.00, 0.00, 0.000, 0.000, 0.000, 10:47:49.041
148, -2.06, 225.95, 0.00, 0.00, 0.000, 0.000, 0.000, 10:47:49.041
149, 1.87, 227.49, 0.00, 0.00, 0.000, 0.000, 0.000, 10:47:49.041
150, 9.39, 232.93, 0.00, 0.00, 0.000, 0.000, 0.000, 10:47:49.041
151, 0.50, 234.45, 0.00, 0.00, 0.000, 0.000, 0.000, 10:47:49.056
152, -9.82, 226.35, 0.00, 0.00, 0.000, 0.000, 0.000, 10:47:49.056
153, 8.84, 229.94, 0.00, 0.00, 0.000, 0.000, 0.000, 10:47:49.070
154, 12.74, 230.90, 0.00, 0.00, 0.000, 0.000, 0.000, 10:47:49.071
155, -1.96, 227.63, 0.00, 0.00, 0.000, 0.000, 0.000, 10:47:49.071
156, 4.18, 234.81, 0.00, 0.00, 0.000, 0.000, 0.000, 10:47:49.071
157, 8.49, 231.46, 0.00, 0.00, 0.000, 0.000, 0.000, 10:47:49.086
158, 14.42, 233.79, 0.00, 0.00, 0.000, 0.000, 0.000, 10:47:49.086
159, -2.35, 230.49, 0.00, 0.00, 0.000, 0.000, 0.000, 10:47:49.101
160, -0.83, 228.60, 0.00, 0.00, 0.000, 0.000, 0.000, 10:47:49.101
161, 3.90, 228.10, 0.00, 0.00, 0.000, 0.000, 0.000, 10:47:49.101
162, 7.63, 229.19, 0.00, 0.00, 0.000, 0.000, 0.000, 10:47:49.101
163, 0.52, 225.25, 0.00, 0.00, 0.000, 0.000, 0.000, 10:47:49.116
164, 2.92, 228.87, 0.00, 0.00, 0.000, 0.000, 0.000, 10:47:49.116
165, 6.87, 225.76, 0.00, 0.00, 0.000, 0.000, 0.000, 10:47:49.131
166, 11.79, 233.19, 0.00, 0.00, 0.000, 0.000, 0.000, 10:47:49.132
167, 4.74, 228.54, 0.00, 0.00, 0.000, 0.000, 0.000, 10:47:49.132
168, -13.18, 225.86, 0.00, 0.00, 0.000, 0.000, 0.000, 10:47:49.132
169, 7.38, 225.43, 0.00, 0.00, 0.000, 0.000, 0.000, 10:47:49.146
170, 12.52, 228.26, 0.00, 0.00, 0.000, 0.000, 0.000, 10:47:49.146
171, 0.82, 226.30, 0.00, 0.00, 0.000, 0.000, 0.000, 10:47:49.161
172, -6.93, 225.46, 0.00, 0.00, 0.000, 0.000, 0.000, 10:47:49.161
173, -0.42, 224.65, 0.00, 0.00, 0.000, 0.000, 0.000, 10:47:49.162
174, 21.74, 223.16, 0.00, 0.00, 0.000, 0.000, 0.000, 10:47:49.162
175, 6.00, 223.60, 0.00, 0.00, 0.000, 0.000, 0.000, 10:47:49.176
176, -6.25, 226.23, 0.00, 0.00, 0.000, 0.000, 0.000, 10:47:49.176
177, 4.01, 226.14, 0.00, 0.00, 0.000, 0.000, 0.000, 10:47:49.191
178, 9.90, 227.75, 0.00, 0.00, 0.000, 0.000, 0.000, 10:47:49.191
179, 1.32, 221.00, 0.00, 0.00, 0.000, 0.000, 0.000, 10:47:49.191
180, -3.90, 227.60, 0.00, 0.00, 0.000, 0.000, 0.000, 10:47:49.191
181, 3.13, 222.69, 0.00, 0.00, 0.000, 0.000, 0.000, 10:47:49.207
182, 10.11, 226.36, 0.00, 0.00, 0.000, 0.000, 0.000, 10:47:49.207
183, 1.43, 223.36, 0.00, 0.00, 0.000, 0.000, 0.000, 10:47:49.222
184, 0.36, 227.57, 0.00, 0.00, 0.000, 0.000, 0.000, 10:47:49.222
185, 2.07, 227.15, 0.00, 0.00, 0.000, 0.000, 0.000, 10:47:49.222
186, 9.73, 230.43, 0.00, 0.00, 0.000, 0.000, 0.000, 10:47:49.223
187, 0.70, 227.83, 0.00, 0.00, 0.000, 0.000, 0.000, 10:47:49.236
188, -2.45, 224.77, 0.00, 0.00, 0.000, 0.000, 0.000, 10:47:49.236
189, 6.37, 228.16, 0.00, 0.00, 0.000, 0.000, 0.000, 10:47:49.251
190, 12.87, 228.46, 0.00, 0.00, 0.000, 0.000, 0.000, 10:47:49.251
191, 2.61, 229.72, 0.00, 0.00, 0.000, 0.000, 0.000, 10:47:49.251
192, -6.77, 224.00, 0.00, 0.00, 0.000, 0.000, 0.000, 10:47:49.251
193, 1.94, 226.99, 0.00, 0.00, 0.000, 0.000, 0.000, 10:47:49.266
194, 16.65, 223.49, 0.00, 0.00, 0.000, 0.000, 0.000, 10:47:49.266
195, 0.69, 221.08, 0.00, 0.00, 0.000, 0.000, 0.000, 10:47:49.282
196, -4.75, 221.84, 0.00, 0.00, 0.000, 0.000, 0.000, 10:47:49.282
197, 4.79, 221.57, 0.00, 0.00, 0.000, 0.000, 0.000, 10:47:49.282
198, 10.23, 229.36, 0.00, 0.00, 0.000, 0.000, 0.000, 10:47:49.282
199, 2.66, 230.52, 0.00, 0.00, 0.000, 0.000, 0.000, 10:47:49.296
200, -4.32, 228.20, 0.00, 0.00, 0.000, 0.000, 0.000, 10:47:49.296
0, 3.27, 226.99, 0.00, 0.00, 0.000, 0.000, 0.000, 10:47:49.297
1, 13.53, 227.94, 0.00, 0.00, 0.000, 0.000, 0.000, 10:47:49.311
2, 2.53, 226.55, 0.00, 0.00, 0.000, 0.000, 0.000, 10:47:49.311
3, -6.77, 227.90, 0.00, 0.00, 0.000, 0.000, 0.000, 10:47:49.326
4, 4.38, 229.19, 0.00, 0.00, 0.000, 0.000, 0.000, 10:47:49.326
5, 12.07, 228.97, 0.00, 0.00, 0.000, 0.000, 0.000, 10:47:49.326
6, 0.46, 229.70, 0.00, 0.00, 0.000, 0.000, 0.000, 10:47:49.326
7, -4.43, 226.57, 0.00, 0.00, 0.000, 0.000, 0.000, 10:47:49.341
8, 7.80, 226.48, 0.00, 0.00, 0.000, 0.000, 0.000, 10:47:49.341
9, 10.37, 228.41, 0.00, 0.00, 0.000, 0.000, 0.000, 10:47:49.356
10, 1.62, 225.83, 0.00, 0.00, 0.000, 0.000, 0.000, 10:47:49.356
11, -6.61, 224.89, 0.00, 0.00, 0.000, 0.000, 0.000, 10:47:49.356
12, 3.32, 223.78, 0.00, 0.00, 0.000, 0.000, 0.000, 10:47:49.356
13, 12.85, 225.56, 0.00, 0.00, 0.000, 0.000, 0.000, 10:47:49.371
14, 1.00, 226.49, 0.00, 0.00, 0.000, 0.000, 0.000, 10:47:49.371
15, -8.93, 222.60, 0.00, 0.00, 0.000, 0.000, 0.000, 10:47:49.387
16, 6.78, 225.69, 0.00, 0.00, 0.000, 0.000, 0.000, 10:47:49.388
17, 12.36, 226.71, 0.00, 0.00, 0.000, 0.000, 0.000, 10:47:49.388
18, -3.65, 224.79, 0.00, 0.00, 0.000, 0.000, 0.000, 10:47:49.388
19, -3.35, 227.40, 0.00, 0.00, 0.000, 0.000, 0.000, 10:47:49.401
20, 3.53, 224.31, 0.00, 0.00, 0.000, 0.000, 0.000, 10:47:49.401
21, 6.59, 224.57, 0.00, 0.00, 0.000, 0.000, 0.000, 10:47:49.417
22, -0.27, 226.16, 0.00, 0.00, 0.000, 0.000, 0.000, 10:47:49.418
23, -1.02, 226.52, 0.00, 0.00, 0.000, 0.000, 0.000, 10:47:49.418
24, 2.77, 221.44, 0.00, 0.00, 0.000, 0.000, 0.000, 10:47:49.418
25, 12.67, 225.98, 0.00, 0.00, 0.000, 0.000, 0.000, 10:47:49.431
26, -1.55, 223.51, 0.00, 0.00, 0.000, 0.000, 0.000, 10:47:49.431
27, -5.99, 223.18, 0.00, 0.00, 0.000, 0.000, 0.000, 10:47:49.448
28, 3.24, 224.49, 0.00, 0.00, 0.000, 0.000, 0.000, 10:47:49.448
29, 10.90, 227.37, 0.00, 0.00, 0.000, 0.000, 0.000, 10:47:49.448
30, 0.03, 230.11, 0.00, 0.00, 0.000, 0.000, 0.000, 10:47:49.448
31, -5.14, 222.82, 0.00, 0.00, 0.000, 0.000, 0.000, 10:47:49.461
32, 2.79, 224.01, 0.00, 0.00, 0.000, 0.000, 0.000, 10:47:49.461
33, 8.75, 225.63, 0.00, 0.00, 0.000, 0.000, 0.000, 10:47:49.477
34, 0.50, 231.29, 0.00, 0.00, 0.000, 0.000, 0.000, 10:47:49.477
35, -4.73, 229.02, 0.00, 0.00, 0.000, 0.000, 0.000, 10:47:49.477
36, -0.47, 230.09, 0.00, 0.00, 0.000, 0.000, 0.000, 10:47:49.477
37, 20.18, 232.92, 0.00, 0.00, 0.000, 0.000, 0.000, 10:47:49.491
38, 1.04, 229.85, 0.00, 0.00, 0.000, 0.000, 0.000, 10:47:49.491
39, -4.93, 228.84, 0.00, 0.00, 0.000, 0.000, 0.000, 10:47:49.521
40, 3.88, 229.43, 0.00, 0.00, 0.000, 0.000, 0.000, 10:47:49.522
41, 11.15, 231.26, 0.00, 0.00, 0.000, 0.000, 0.000, 10:47:49.522
42, -1.43, 233.41, 0.00, 0.00, 0.000, 0.000, 0.000, 10:47:49.522
43, -6.09, 229.55, 0.00, 0.00, 0.000, 0.000, 0.000, 10:47:49.522
44, 6.06, 225.15, 0.00, 0.00, 0.000, 0.000, 0.000, 10:47:49.522
45, 7.35, 229.47, 0.00, 0.00, 0.000, 0.000, 0.000, 10:47:49.523
46, -0.10, 224.99, 0.00, 0.00, 0.000, 0.000, 0.000, 10:47:49.523
47, -5.87, 227.33, 0.00, 0.00, 0.000, 0.000, 0.000, 10:47:49.536
48, 4.58, 225.76, 0.00, 0.00, 0.000, 0.000, 0.000, 10:47:49.536
49, 4.89, 225.79, 0.00, 0.00, 0.000, 0.000, 0.000, 10:47:49.551
50, 3.81, 231.59, 0.00, 0.00, 0.000, 0.000, 0.000, 10:47:49.551
51, -10.33, 225.26, 0.00, 0.00, 0.000, 0.000, 0.000, 10:47:49.566
52, 4.88, 230.13, 0.00, 0.00, 0.000, 0.000, 0.000, 10:47:49.566
53, 10.73, 232.20, 0.00, 0.00, 0.000, 0.000, 0.000, 10:47:49.566
54, 1.45, 234.88, 0.00, 0.00, 0.000, 0.000, 0.000, 10:47:49.566
55, -1.57, 230.76, 0.00, 0.00, 0.000, 0.000, 0.000, 10:47:49.581
56, 4.06, 234.21, 0.00, 0.00, 0.000, 0.000, 0.000, 10:47:49.581
57, 16.64, 233.72, 0.00, 0.00, 0.000, 0.000, 0.000, 10:47:49.596
58, 1.32, 231.70, 0.00, 0.00, 0.000, 0.000, 0.000, 10:47:49.596
59, -13.21, 224.19, 0.00, 0.00, 0.000, 0.000, 0.000, 10:47:49.596
60, 5.19, 232.32, 0.00, 0.00, 0.000, 0.000, 0.000, 10:47:49.596
61, 9.15, 235.86, 0.00, 0.00, 0.000, 0.000, 0.000, 10:47:49.611
62, -3.44, 229.52, 0.00, 0.00, 0.000, 0.000, 0.000, 10:47:49.611
63, -0.61, 231.97, 0.00, 0.00, 0.000, 0.000, 0.000, 10:47:49.626
64, 1.52, 232.49, 0.00, 0.00, 0.000, 0.000, 0.000, 10:47:49.626
65, 9.05, 230.22, 0.00, 0.00, 0.000, 0.000, 0.000, 10:47:49.626
66, 2.76, 232.73, 0.00, 0.00, 0.000, 0.000, 0.000, 10:47:49.626
67, -5.33, 224.93, 0.00, 0.00, 0.000, 0.000, 0.000, 10:47:49.640
68, 3.81, 223.58, 0.00, 0.00, 0.000, 0.000, 0.000, 10:47:49.641
69, 15.14, 224.58, 0.00, 0.00, 0.000, 0.000, 0.000, 10:47:49.657
70, 5.99, 224.29, 0.00, 0.00, 0.000, 0.000, 0.000, 10:47:49.657
71, -4.40, 222.96, 0.00, 0.00, 0.000, 0.000, 0.000, 10:47:49.657
72, 3.93, 227.72, 0.00, 0.00, 0.000, 0.000, 0.000, 10:47:49.657
73, 14.11, 230.70, 0.00, 0.00, 0.000, 0.000, 0.000, 10:47:49.671
74, 2.58, 230.41, 0.00, 0.00, 0.000, 0.000, 0.000, 10:47:49.671
75, -7.13, 224.28, 0.00, 0.00, 0.000, 0.000, 0.000, 10:47:49.686
76, 0.45, 222.74, 0.00, 0.00, 0.000, 0.000, 0.000, 10:47:49.686
77, 13.78, 221.43, 0.00, 0.00, 0.000, 0.000, 0.000, 10:47:49.686
78, 0.14, 223.66, 0.00, 0.00, 0.000, 0.000, 0.000, 10:47:49.686
79, -8.69, 223.89, 0.00, 0.00, 0.000, 0.000, 0.000, 10:47:49.701
80, -0.46, 225.95, 0.00, 0.00, 0.000, 0.000, 0.000, 10:47:49.701
81, 20.59, 225.88, 0.00, 0.00, 0.000, 0.000, 0.000, 10:47:49.716
82, 2.97, 226.92, 0.00, 0.00, 0.000, 0.000, 0.000, 10:47:49.716
83, -5.94, 224.27, 0.00, 0.00, 0.000, 0.000, 0.000, 10:47:49.716
84, 2.15, 226.50, 0.00, 0.00, 0.000, 0.000, 0.000, 10:47:49.717
85, 9.25, 225.22, 0.00, 0.00, 0.000, 0.000, 0.000, 10:47:49.731
86, 3.86, 229.79, 0.00, 0.00, 0.000, 0.000, 0.000, 10:47:49.731
87, -7.59, 223.96, 0.00, 0.00, 0.000, 0.000, 0.000, 10:47:49.746
88, 2.62, 226.22, 0.00, 0.00, 0.000, 0.000, 0.000, 10:47:49.747
89, 13.57, 226.58, 0.00, 0.00, 0.000, 0.000, 0.000, 10:47:49.753
90, 6.67, 228.19, 0.00, 0.00, 0.000, 0.000, 0.000, 10:47:49.753
91, -7.02, 225.42, 0.00, 0.00, 0.000, 0.000, 0.000, 10:47:49.761
92, 4.31, 225.60, 0.00, 0.00, 0.000, 0.000, 0.000, 10:47:49.761
93, 14.08, 227.51, 0.00, 0.00, 0.000, 0.000, 0.000, 10:47:49.776
94, 1.37, 229.73, 0.00, 0.00, 0.000, 0.000, 0.000, 10:47:49.776
95, 1.75, 225.85, 0.00, 0.00, 0.000, 0.000, 0.000, 10:47:49.776
96, 7.00, 226.64, 0.00, 0.00, 0.000, 0.000, 0.000, 10:47:49.776
97, 14.69, 229.83, 0.00, 0.00, 0.000, 0.000, 0.000, 10:47:49.791
98, 5.48, 233.07, 0.00, 0.00, 0.000, 0.000, 0.000, 10:47:49.791
99, -6.05, 224.63, 0.00, 0.00, 0.000, 0.000, 0.000, 10:47:49.806
100, 5.32, 226.25, 0.00, 0.00, 0.000, 0.000, 0.000, 10:47:49.806
101, 12.86, 230.60, 0.00, 0.00, 0.000, 0.000, 0.000, 10:47:49.806
102, -0.09, 228.75, 0.00, 0.00, 0.000, 0.000, 0.000, 10:47:49.806
103, -7.46, 231.64, 0.00, 0.00, 0.000, 0.000, 0.000, 10:47:49.821
104, 3.56, 227.83, 0.00, 0.00, 0.000, 0.000, 0.000, 10:47:49.821
105, 8.46, 234.59, 0.00, 0.00, 0.000, 0.000, 0.000, 10:47:49.836
106, 4.12, 229.46, 0.00, 0.00, 0.000, 0.000, 0.000, 10:47:49.836
107, -2.84, 229.19, 0.00, 0.00, 0.000, 0.000, 0.000, 10:47:49.836
108, 4.49, 227.96, 0.00, 0.00, 0.000, 0.000, 0.000, 10:47:49.836
109, 13.70, 233.73, 0.00, 0.00, 0.000, 0.000, 0.000, 10:47:49.850
110, -1.64, 224.44, 0.00, 0.00, 0.000, 0.000, 0.000, 10:47:49.850
111, 2.10, 229.58, 0.00, 0.00, 0.000, 0.000, 0.000, 10:47:49.867
112, 6.65, 232.17, 0.00, 0.00, 0.000, 0.000, 0.000, 10:47:49.867
113, 13.15, 237.26, 0.00, 0.00, 0.000, 0.000, 0.000, 10:47:49.867
114, -0.61, 235.31, 0.00, 0.00, 0.000, 0.000, 0.000, 10:47:49.867
115, -4.38, 230.67, 0.00, 0.00, 0.000, 0.000, 0.000, 10:47:49.881
116, 1.70, 229.80, 0.00, 0.00, 0.000, 0.000, 0.000, 10:47:49.881
117, 23.22, 231.08, 0.00, 0.00, 0.000, 0.000, 0.000, 10:47:49.896
118, 2.42, 228.20, 0.00, 0.00, 0.000, 0.000, 0.000, 10:47:49.897
119, -5.06, 226.31, 0.00, 0.00, 0.000, 0.000, 0.000, 10:47:49.897
120, 5.28, 228.81, 0.00, 0.00, 0.000, 0.000, 0.000, 10:47:49.897
121, 9.73, 227.88, 0.00, 0.00, 0.000, 0.000, 0.000, 10:47:49.911
122, 2.80, 232.03, 0.00, 0.00, 0.000, 0.000, 0.000, 10:47:49.911
123, -2.54, 232.08, 0.00, 0.00, 0.000, 0.000, 0.000, 10:47:49.926
124, 7.15, 230.84, 0.00, 0.00, 0.000, 0.000, 0.000, 10:47:49.926
125, 16.53, 234.68, 0.00, 0.00, 0.000, 0.000, 0.000, 10:47:49.926
126, 4.77, 233.20, 0.00, 0.00, 0.000, 0.000, 0.000, 10:47:49.926
127, -3.86, 231.38, 0.00, 0.00, 0.000, 0.000, 0.000, 10:47:49.941
128, -0.36, 226.40, 0.00, 0.00, 0.000, 0.000, 0.000, 10:47:49.942
129, 14.03, 230.52, 0.00, 0.00, 0.000, 0.000, 0.000, 10:47:49.956
130, 11.57, 231.08, 0.00, 0.00, 0.000, 0.000, 0.000, 10:47:49.957
131, -4.05, 231.37, 0.00, 0.00, 0.000, 0.000, 0.000, 10:47:49.957
132, 2.58, 230.16, 0.00, 0.00, 0.000, 0.000, 0.000, 10:47:49.957
133, 16.16, 232.69, 0.00, 0.00, 0.000, 0.000, 0.000, 10:47:49.971
134, -1.29, 235.12, 0.00, 0.00, 0.000, 0.000, 0.000, 10:47:49.971
135, -6.62, 232.10, 0.00, 0.00, 0.000, 0.000, 0.000, 10:47:49.986
136, -0.04, 232.07, 0.00, 0.00, 0.000, 0.000, 0.000, 10:47:49.986
137, 8.35, 235.79, 0.00, 0.00, 0.000, 0.000, 0.000, 10:47:49.986
138, 0.38, 233.15, 0.00, 0.00, 0.000, 0.000, 0.000, 10:47:49.986
139, -10.41, 231.76, 0.00, 0.00, 0.000, 0.000, 0.000, 10:47:50.001
140, 3.69, 229.43, 0.00, 0.00, 0.000, 0.000, 0.000, 10:47:50.001
141, 13.30, 234.16, 0.00, 0.00, 0.000, 0.000, 0.000, 10:47:50.016
142, -0.64, 234.92, 0.00, 0.00, 0.000, 0.000, 0.000, 10:47:50.016
143, -4.30, 232.60, 0.00, 0.00, 0.000, 0.000, 0.000, 10:47:50.016
144, 5.09, 236.16, 0.00, 0.00, 0.000, 0.000, 0.000, 10:47:50.016
145, 10.98, 240.66, 0.00, 0.00, 0.000, 0.000, 0.000, 10:47:50.031
146, 3.01, 240.06, 0.00, 0.00, 0.000, 0.000, 0.000, 10:47:50.031
147, -14.27, 235.62, 0.00, 0.00, 0.000, 0.000, 0.000, 10:47:50.046
148, 6.60, 237.05, 0.00, 0.00, 0.000, 0.000, 0.000, 10:47:50.046
149, 12.18, 236.78, 0.00, 0.00, 0.000, 0.000, 0.000, 10:47:50.047
150, 4.75, 239.92, 0.00, 0.00, 0.000, 0.000, 0.000, 10:47:50.047
151, -2.81, 240.03, 0.00, 0.00, 0.000, 0.000, 0.000, 10:47:50.061
152, 7.80, 236.57, 0.00, 0.00, 0.000, 0.000, 0.000, 10:47:50.061
153, 11.70, 238.18, 0.00, 0.00, 0.000, 0.000, 0.000, 10:47:50.076
154, 4.57, 242.12, 0.00, 0.00, 0.000, 0.000, 0.000, 10:47:50.076
155, -3.34, 236.62, 0.00, 0.00, 0.000, 0.000, 0.000, 10:47:50.076
156, 3.27, 233.71, 0.00, 0.00, 0.000, 0.000, 0.000, 10:47:50.076
157, 9.82, 235.20, 0.00, 0.00, 0.000, 0.000, 0.000, 10:47:50.091
158, 2.60, 233.58, 0.00, 0.00, 0.000, 0.000, 0.000, 10:47:50.091
159, -5.02, 231.39, 0.00, 0.00, 0.000, 0.000, 0.000, 10:47:50.106
160, 2.71, 231.75, 0.00, 0.00, 0.000, 0.000, 0.000, 10:47:50.106
161, 9.17, 235.72, 0.00, 0.00, 0.000, 0.000, 0.000, 10:47:50.106
162, 3.41, 237.41, 0.00, 0.00, 0.000, 0.000, 0.000, 10:47:50.106
163, -5.62, 233.09, 0.00, 0.00, 0.000, 0.000, 0.000, 10:47:50.122
164, 3.12, 236.88, 0.00, 0.00, 0.000, 0.000, 0.000, 10:47:50.122
165, 10.12, 237.27, 0.00, 0.00, 0.000, 0.000, 0.000, 10:47:50.135
166, 3.00, 236.09, 0.00, 0.00, 0.000, 0.000, 0.000, 10:47:50.136
167, -3.61, 234.24, 0.00, 0.00, 0.000, 0.000, 0.000, 10:47:50.136
168, 0.20, 234.24, 0.00, 0.00, 0.000, 0.000, 0.000, 10:47:50.136
169, 12.48, 235.90, 0.00, 0.00, 0.000, 0.000, 0.000, 10:47:50.150
170, 1.04, 236.45, 0.00, 0.00, 0.000, 0.000, 0.000, 10:47:50.151
171, -8.22, 229.99, 0.00, 0.00, 0.000, 0.000, 0.000, 10:47:50.166
172, -2.03, 231.91, 0.00, 0.00, 0.000, 0.000, 0.000, 10:47:50.166
173, 24.95, 237.58, 0.00, 0.00, 0.000, 0.000, 0.000, 10:47:50.167
174, 7.20, 232.60, 0.00, 0.00, 0.000, 0.000, 0.000, 10:47:50.167
175, -4.01, 233.48, 0.00, 0.00, 0.000, 0.000, 0.000, 10:47:50.181
176, 3.22, 235.08, 0.00, 0.00, 0.000, 0.000, 0.000, 10:47:50.181
177, 7.57, 240.54, 0.00, 0.00, 0.000, 0.000, 0.000, 10:47:50.196
178, 3.58, 243.24, 0.00, 0.00, 0.000, 0.000, 0.000, 10:47:50.196
179, -6.26, 239.84, 0.00, 0.00, 0.000, 0.000, 0.000, 10:47:50.197
180, 2.02, 240.72, 0.00, 0.00, 0.000, 0.000, 0.000, 10:47:50.197
181, 7.22, 246.55, 0.00, 0.00, 0.000, 0.000, 0.000, 10:47:50.226
182, 5.25, 243.65, 0.00, 0.00, 0.000, 0.000, 0.000, 10:47:50.226
183, -10.35, 238.58, 0.00, 0.00, 0.000, 0.000, 0.000, 10:47:50.226
184, 5.06, 239.25, 0.00, 0.00, 0.000, 0.000, 0.000, 10:47:50.226
185, 13.36, 239.31, 0.00, 0.00, 0.000, 0.000, 0.000, 10:47:50.234
186, 4.74, 239.27, 0.00, 0.00, 0.000, 0.000, 0.000, 10:47:50.234
187, -19.52, 234.01, 0.00, 0.00, 0.000, 0.000, 0.000, 10:47:50.241
188, 11.89, 240.77, 0.00, 0.00, 0.000, 0.000, 0.000, 10:47:50.241
189, 20.29, 237.26, 0.00, 0.00, 0.000, 0.000, 0.000, 10:47:50.256
190, 7.46, 238.58, 0.00, 0.00, 0.000, 0.000, 0.000, 10:47:50.256
191, 0.50, 235.35, 0.00, 0.00, 0.000, 0.000, 0.000, 10:47:50.256
192, 1.31, 236.80, 0.00, 0.00, 0.000, 0.000, 0.000, 10:47:50.256
193, 9.10, 238.87, 0.00, 0.00, 0.000, 0.000, 0.000, 10:47:50.270
194, -1.23, 238.46, 0.00, 0.00, 0.000, 0.000, 0.000, 10:47:50.270
195, -3.22, 234.77, 0.00, 0.00, 0.000, 0.000, 0.000, 10:47:50.286
196, 2.80, 236.85, 0.00, 0.00, 0.000, 0.000, 0.000, 10:47:50.286
197, 12.63, 234.92, 0.00, 0.00, 0.000, 0.000, 0.000, 10:47:50.286
198, 0.63, 233.44, 0.00, 0.00, 0.000, 0.000, 0.000, 10:47:50.286
199, -8.33, 235.76, 0.00, 0.00, 0.000, 0.000, 0.000, 10:47:50.301
200, 3.69, 232.88, 0.00, 0.00, 0.000, 0.000, 0.000, 10:47:50.301
0, 8.73, 238.71, 0.00, 0.00, 0.000, 0.000, 0.000, 10:47:50.301
1, 4.40, 236.37, 0.00, 0.00, 0.000, 0.000, 0.000, 10:47:50.316
2, -13.21, 236.04, 0.00, 0.00, 0.000, 0.000, 0.000, 10:47:50.316
3, 8.91, 235.04, 0.00, 0.00, 0.000, 0.000, 0.000, 10:47:50.331
4, 14.37, 247.14, 0.00, 0.00, 0.000, 0.000, 0.000, 10:47:50.331
5, 4.10, 244.15, 0.00, 0.00, 0.000, 0.000, 0.000, 10:47:50.331
6, -7.80, 235.89, 0.00, 0.00, 0.000, 0.000, 0.000, 10:47:50.331
7, -2.79, 236.21, 0.00, 0.00, 0.000, 0.000, 0.000, 10:47:50.346
8, 24.57, 237.10, 0.00, 0.00, 0.000, 0.000, 0.000, 10:47:50.346
9, 5.42, 232.90, 0.00, 0.00, 0.000, 0.000, 0.000, 10:47:50.361
10, -5.56, 236.63, 0.00, 0.00, 0.000, 0.000, 0.000, 10:47:50.361
11, 3.85, 235.00, 0.00, 0.00, 0.000, 0.000, 0.000, 10:47:50.361
12, 9.72, 238.62, 0.00, 0.00, 0.000, 0.000, 0.000, 10:47:50.361
13, -0.04, 235.99, 0.00, 0.00, 0.000, 0.000, 0.000, 10:47:50.376
14, -4.35, 235.14, 0.00, 0.00, 0.000, 0.000, 0.000, 10:47:50.376
15, 5.98, 232.88, 0.00, 0.00, 0.000, 0.000, 0.000, 10:47:50.391
16, 7.86, 234.86, 0.00, 0.00, 0.000, 0.000, 0.000, 10:47:50.391
17, 0.52, 237.03, 0.00, 0.00, 0.000, 0.000, 0.000, 10:47:50.391
18, -5.28, 231.88, 0.00, 0.00, 0.000, 0.000, 0.000, 10:47:50.391
19, 0.09, 232.06, 0.00, 0.00, 0.000, 0.000, 0.000, 10:47:50.405
20, 9.45, 233.20, 0.00, 0.00, 0.000, 0.000, 0.000, 10:47:50.405
21, 0.29, 234.14, 0.00, 0.00, 0.000, 0.000, 0.000, 10:47:50.422
22, -5.53, 232.85, 0.00, 0.00, 0.000, 0.000, 0.000, 10:47:50.422
23, 3.33, 229.12, 0.00, 0.00, 0.000, 0.000, 0.000, 10:47:50.422
24, 11.12, 232.65, 0.00, 0.00, 0.000, 0.000, 0.000, 10:47:50.422
25, 2.39, 233.37, 0.00, 0.00, 0.000, 0.000, 0.000, 10:47:50.436
26, -2.55, 231.88, 0.00, 0.00, 0.000, 0.000, 0.000, 10:47:50.436
27, 0.50, 226.97, 0.00, 0.00, 0.000, 0.000, 0.000, 10:47:50.450
28, 11.58, 229.96, 0.00, 0.00, 0.000, 0.000, 0.000, 10:47:50.451
29, 2.98, 234.16, 0.00, 0.00, 0.000, 0.000, 0.000, 10:47:50.451
30, -3.57, 237.35, 0.00, 0.00, 0.000, 0.000, 0.000, 10:47:50.451
31, 0.24, 232.78, 0.00, 0.00, 0.000, 0.000, 0.000, 10:47:50.466
32, 15.20, 235.48, 0.00, 0.00, 0.000, 0.000, 0.000, 10:47:50.467
33, 4.85, 237.97, 0.00, 0.00, 0.000, 0.000, 0.000, 10:47:50.481
34, -5.24, 237.34, 0.00, 0.00, 0.000, 0.000, 0.000, 10:47:50.481
35, 4.93, 236.98, 0.00, 0.00, 0.000, 0.000, 0.000, 10:47:50.481
36, 10.86, 238.53, 0.00, 0.00, 0.000, 0.000, 0.000, 10:47:50.481
37, 2.54, 240.52, 0.00, 0.00, 0.000, 0.000, 0.000, 10:47:50.496
38, -4.47, 235.37, 0.00, 0.00, 0.000, 0.000, 0.000, 10:47:50.496
39, 4.51, 232.06, 0.00, 0.00, 0.000, 0.000, 0.000, 10:47:50.511
40, 10.06, 235.91, 0.00, 0.00, 0.000, 0.000, 0.000, 10:47:50.511
41, 4.21, 236.51, 0.00, 0.00, 0.000, 0.000, 0.000, 10:47:50.511
42, -9.40, 229.55, 0.00, 0.00, 0.000, 0.000, 0.000, 10:47:50.511
43, 2.56, 233.82, 0.00, 0.00, 0.000, 0.000, 0.000, 10:47:50.526
44, 13.96, 234.39, 0.00, 0.00, 0.000, 0.000, 0.000, 10:47:50.526
45, 4.22, 232.12, 0.00, 0.00, 0.000, 0.000, 0.000, 10:47:50.541
46, -2.58, 232.54, 0.00, 0.00, 0.000, 0.000, 0.000, 10:47:50.541
47, 4.90, 233.55, 0.00, 0.00, 0.000, 0.000, 0.000, 10:47:50.541
48, 5.42, 233.78, 0.00, 0.00, 0.000, 0.000, 0.000, 10:47:50.541
49, 7.56, 237.37, 0.00, 0.00, 0.000, 0.000, 0.000, 10:47:50.556
50, -5.10, 235.61, 0.00, 0.00, 0.000, 0.000, 0.000, 10:47:50.556
51, 6.00, 234.91, 0.00, 0.00, 0.000, 0.000, 0.000, 10:47:50.571
52, 9.92, 237.84, 0.00, 0.00, 0.000, 0.000, 0.000, 10:47:50.571
53, 3.85, 237.99, 0.00, 0.00, 0.000, 0.000, 0.000, 10:47:50.571
54, -6.28, 233.71, 0.00, 0.00, 0.000, 0.000, 0.000, 10:47:50.571
55, 3.79, 233.14, 0.00, 0.00, 0.000, 0.000, 0.000, 10:47:50.586
56, 14.74, 231.52, 0.00, 0.00, 0.000, 0.000, 0.000, 10:47:50.586
57, 4.07, 231.26, 0.00, 0.00, 0.000, 0.000, 0.000, 10:47:50.602
58, -6.66, 232.85, 0.00, 0.00, 0.000, 0.000, 0.000, 10:47:50.602
59, 4.01, 230.39, 0.00, 0.00, 0.000, 0.000, 0.000, 10:47:50.603
60, 14.35, 236.26, 0.00, 0.00, 0.000, 0.000, 0.000, 10:47:50.603
61, -0.13, 238.19, 0.00, 0.00, 0.000, 0.000, 0.000, 10:47:50.616
62, -3.01, 233.82, 0.00, 0.00, 0.000, 0.000, 0.000, 10:47:50.616
63, 4.70, 233.11, 0.00, 0.00, 0.000, 0.000, 0.000, 10:47:50.631
64, 11.77, 236.61, 0.00, 0.00, 0.000, 0.000, 0.000, 10:47:50.631
65, 5.38, 231.82, 0.00, 0.00, 0.000, 0.000, 0.000, 10:47:50.631
66, -2.32, 233.65, 0.00, 0.00, 0.000, 0.000, 0.000, 10:47:50.631
67, 3.31, 230.07, 0.00, 0.00, 0.000, 0.000, 0.000, 10:47:50.647
68, 12.45, 235.36, 0.00, 0.00, 0.000, 0.000, 0.000, 10:47:50.647
69, 5.22, 229.73, 0.00, 0.00, 0.000, 0.000, 0.000, 10:47:50.661
70, -8.28, 228.86, 0.00, 0.00, 0.000, 0.000, 0.000, 10:47:50.662
71, 2.62, 228.61, 0.00, 0.00, 0.000, 0.000, 0.000, 10:47:50.662
72, 15.65, 232.28, 0.00, 0.00, 0.000, 0.000, 0.000, 10:47:50.662
73, 4.24, 228.16, 0.00, 0.00, 0.000, 0.000, 0.000, 10:47:50.676
74, 0.15, 226.05, 0.00, 0.00, 0.000, 0.000, 0.000, 10:47:50.676
75, 2.52, 233.41, 0.00, 0.00, 0.000, 0.000, 0.000, 10:47:50.690
76, 9.05, 233.88, 0.00, 0.00, 0.000, 0.000, 0.000, 10:47:50.691
77, 4.78, 232.75, 0.00, 0.00, 0.000, 0.000, 0.000, 10:47:50.691
78, -3.41, 232.10, 0.00, 0.00, 0.000, 0.000, 0.000, 10:47:50.691
79, 5.45, 233.56, 0.00, 0.00, 0.000, 0.000, 0.000, 10:47:50.706
80, 3.78, 228.99, 0.00, 0.00, 0.000, 0.000, 0.000, 10:47:50.706
81, 14.56, 232.60, 0.00, 0.00, 0.000, 0.000, 0.000, 10:47:50.721
82, -7.94, 228.57, 0.00, 0.00, 0.000, 0.000, 0.000, 10:47:50.721
83, 5.52, 230.39, 0.00, 0.00, 0.000, 0.000, 0.000, 10:47:50.721
84, 9.81, 232.06, 0.00, 0.00, 0.000, 0.000, 0.000, 10:47:50.722
85, 3.74, 233.44, 0.00, 0.00, 0.000, 0.000, 0.000, 10:47:50.736
86, -3.04, 230.15, 0.00, 0.00, 0.000, 0.000, 0.000, 10:47:50.736
87, 5.26, 230.80, 0.00, 0.00, 0.000, 0.000, 0.000, 10:47:50.751
88, 10.25, 228.43, 0.00, 0.00, 0.000, 0.000, 0.000, 10:47:50.751
89, 2.17, 232.96, 0.00, 0.00, 0.000, 0.000, 0.000, 10:47:50.752
90, -5.96, 228.90, 0.00, 0.00, 0.000, 0.000, 0.000, 10:47:50.752
91, 5.97, 231.74, 0.00, 0.00, 0.000, 0.000, 0.000, 10:47:50.767
92, 13.00, 234.39, 0.00, 0.00, 0.000, 0.000, 0.000, 10:47:50.767
93, 7.11, 234.32, 0.00, 0.00, 0.000, 0.000, 0.000, 10:47:50.781
94, 2.29, 234.30, 0.00, 0.00, 0.000, 0.000, 0.000, 10:47:50.781
95, -1.21, 233.93, 0.00, 0.00, 0.000, 0.000, 0.000, 10:47:50.782
96, 14.50, 232.40, 0.00, 0.00, 0.000, 0.000, 0.000, 10:47:50.782
97, 1.84, 233.01, 0.00, 0.00, 0.000, 0.000, 0.000, 10:47:50.796
98, 1.77, 237.50, 0.00, 0.00, 0.000, 0.000, 0.000, 10:47:50.796
99, 0.99, 234.65, 0.00, 0.00, 0.000, 0.000, 0.000, 10:47:50.811
100, 12.58, 233.37, 0.00, 0.00, 0.000, 0.000, 0.000, 10:47:50.811
101, 1.17, 235.17, 0.00, 0.00, 0.000, 0.000, 0.000, 10:47:50.811
102, -2.08, 234.76, 0.00, 0.00, 0.000, 0.000, 0.000, 10:47:50.811
103, 1.80, 233.70, 0.00, 0.00, 0.000, 0.000, 0.000, 10:47:50.826
104, 9.40, 232.59, 0.00, 0.00, 0.000, 0.000, 0.000, 10:47:50.826
105, 7.07, 232.64, 0.00, 0.00, 0.000, 0.000, 0.000, 10:47:50.842
106, -2.31, 232.41, 0.00, 0.00, 0.000, 0.000, 0.000, 10:47:50.842
107, 3.54, 229.49, 0.00, 0.00, 0.000, 0.000, 0.000, 10:47:50.842
108, 14.54, 230.31, 0.00, 0.00, 0.000, 0.000, 0.000, 10:47:50.842
109, 4.53, 228.70, 0.00, 0.00, 0.000, 0.000, 0.000, 10:47:50.856
110, -6.40, 229.08, 0.00, 0.00, 0.000, 0.000, 0.000, 10:47:50.857
111, -0.07, 226.34, 0.00, 0.00, 0.000, 0.000, 0.000, 10:47:50.871
112, 7.79, 226.04, 0.00, 0.00, 0.000, 0.000, 0.000, 10:47:50.871
113, 12.70, 233.26, 0.00, 0.00, 0.000, 0.000, 0.000, 10:47:50.871
114, -4.15, 227.50, 0.00, 0.00, 0.000, 0.000, 0.000, 10:47:50.871
115, 3.94, 231.81, 0.00, 0.00, 0.000, 0.000, 0.000, 10:47:50.886
116, 10.99, 236.11, 0.00, 0.00, 0.000, 0.000, 0.000, 10:47:50.886
117, 2.26, 235.09, 0.00, 0.00, 0.000, 0.000, 0.000, 10:47:50.901
118, -8.72, 231.40, 0.00, 0.00, 0.000, 0.000, 0.000, 10:47:50.901
119, 3.74, 228.29, 0.00, 0.00, 0.000, 0.000, 0.000, 10:47:50.902
120, 14.22, 232.74, 0.00, 0.00, 0.000, 0.000, 0.000, 10:47:50.902
121, -0.11, 233.15, 0.00, 0.00, 0.000, 0.000, 0.000, 10:47:50.917
122, -9.58, 232.27, 0.00, 0.00, 0.000, 0.000, 0.000, 10:47:50.917
123, 4.72, 231.53, 0.00, 0.00, 0.000, 0.000, 0.000, 10:47:50.931
124, 9.55, 235.70, 0.00, 0.00, 0.000, 0.000, 0.000, 10:47:50.931
125, 5.23, 233.35, 0.00, 0.00, 0.000, 0.000, 0.000, 10:47:50.931
126, -1.16, 235.24, 0.00, 0.00, 0.000, 0.000, 0.000, 10:47:50.931
127, 2.13, 234.82, 0.00, 0.00, 0.000, 0.000, 0.000, 10:47:50.946
128, 10.89, 232.91, 0.00, 0.00, 0.000, 0.000, 0.000, 10:47:50.946
129, 3.14, 231.59, 0.00, 0.00, 0.000, 0.000, 0.000, 10:47:50.961
130, -4.56, 232.90, 0.00, 0.00, 0.000, 0.000, 0.000, 10:47:50.961
131, 2.77, 229.48, 0.00, 0.00, 0.000, 0.000, 0.000, 10:47:50.961
132, 10.59, 234.14, 0.00, 0.00, 0.000, 0.000, 0.000, 10:47:50.961
133, 8.82, 230.06, 0.00, 0.00, 0.000, 0.000, 0.000, 10:47:50.976
134, -6.46, 225.00, 0.00, 0.00, 0.000, 0.000, 0.000, 10:47:50.976
135, 3.42, 224.88, 0.00, 0.00, 0.000, 0.000, 0.000, 10:47:50.991
136, 7.93, 228.40, 0.00, 0.00, 0.000, 0.000, 0.000, 10:47:50.991
137, 5.67, 228.48, 0.00, 0.00, 0.000, 0.000, 0.000, 10:47:50.998
138, -5.32, 222.77, 0.00, 0.00, 0.000, 0.000, 0.000, 10:47:50.999
139, -0.71, 230.48, 0.00, 0.00, 0.000, 0.000, 0.000, 10:47:51.006
140, 14.73, 231.15, 0.00, 0.00, 0.000, 0.000, 0.000, 10:47:51.006
141, 6.02, 228.02, 0.00, 0.00, 0.000, 0.000, 0.000, 10:47:51.021
142, -8.82, 224.94, 0.00, 0.00, 0.000, 0.000, 0.000, 10:47:51.021
143, 5.30, 228.38, 0.00, 0.00, 0.000, 0.000, 0.000, 10:47:51.021
144, 10.26, 230.09, 0.00, 0.00, 0.000, 0.000, 0.000, 10:47:51.021
145, 6.63, 231.46, 0.00, 0.00, 0.000, 0.000, 0.000, 10:47:51.036
146, -2.67, 227.62, 0.00, 0.00, 0.000, 0.000, 0.000, 10:47:51.036
147, -4.09, 229.41, 0.00, 0.00, 0.000, 0.000, 0.000, 10:47:51.051
148, 13.40, 228.74, 0.00, 0.00, 0.000, 0.000, 0.000, 10:47:51.051
149, 6.67, 230.90, 0.00, 0.00, 0.000, 0.000, 0.000, 10:47:51.051
150, -5.24, 228.95, 0.00, 0.00, 0.000, 0.000, 0.000, 10:47:51.052
151, 2.63, 228.91, 0.00, 0.00, 0.000, 0.000, 0.000, 10:47:51.066
152, 15.94, 232.03, 0.00, 0.00, 0.000, 0.000, 0.000, 10:47:51.066
153, 2.09, 233.79, 0.00, 0.00, 0.000, 0.000, 0.000, 10:47:51.081
154, -6.20, 227.24, 0.00, 0.00, 0.000, 0.000, 0.000, 10:47:51.081
155, -0.78, 229.78, 0.00, 0.00, 0.000, 0.000, 0.000, 10:47:51.081
156, 20.27, 234.60, 0.00, 0.00, 0.000, 0.000, 0.000, 10:47:51.081
157, 2.57, 233.03, 0.00, 0.00, 0.000, 0.000, 0.000, 10:47:51.096
158, -0.18, 233.89, 0.00, 0.00, 0.000, 0.000, 0.000, 10:47:51.097
159, 0.54, 234.83, 0.00, 0.00, 0.000, 0.000, 0.000, 10:47:51.111
160, 4.74, 231.58, 0.00, 0.00, 0.000, 0.000, 0.000, 10:47:51.111
161, 4.51, 235.52, 0.00, 0.00, 0.000, 0.000, 0.000, 10:47:51.111
162, -6.98, 235.28, 0.00, 0.00, 0.000, 0.000, 0.000, 10:47:51.112
163, 0.76, 232.75, 0.00, 0.00, 0.000, 0.000, 0.000, 10:47:51.126
164, 11.67, 231.14, 0.00, 0.00, 0.000, 0.000, 0.000, 10:47:51.126
165, 3.68, 232.99, 0.00, 0.00, 0.000, 0.000, 0.000, 10:47:51.141
166, -7.70, 229.93, 0.00, 0.00, 0.000, 0.000, 0.000, 10:47:51.141
167, 5.46, 234.56, 0.00, 0.00, 0.000, 0.000, 0.000, 10:47:51.141
168, 8.99, 240.18, 0.00, 0.00, 0.000, 0.000, 0.000, 10:47:51.142
169, 5.56, 240.34, 0.00, 0.00, 0.000, 0.000, 0.000, 10:47:51.178
170, -9.65, 235.67, 0.00, 0.00, 0.000, 0.000, 0.000, 10:47:51.178
171, 1.97, 232.09, 0.00, 0.00, 0.000, 0.000, 0.000, 10:47:51.178
172, 11.24, 233.06, 0.00, 0.00, 0.000, 0.000, 0.000, 10:47:51.178
173, 5.50, 237.58, 0.00, 0.00, 0.000, 0.000, 0.000, 10:47:51.179
174, -4.11, 235.67, 0.00, 0.00, 0.000, 0.000, 0.000, 10:47:51.179
175, -0.78, 233.25, 0.00, 0.00, 0.000, 0.000, 0.000, 10:47:51.186
176, 15.40, 234.36, 0.00, 0.00, 0.000, 0.000, 0.000, 10:47:51.186
177, 6.33, 233.33, 0.00, 0.00, 0.000, 0.000, 0.000, 10:47:51.201
178, -3.62, 233.87, 0.00, 0.00, 0.000, 0.000, 0.000, 10:47:51.201
179, 3.30, 235.46, 0.00, 0.00, 0.000, 0.000, 0.000, 10:47:51.201
180, 13.80, 237.87, 0.00, 0.00, 0.000, 0.000, 0.000, 10:47:51.202
181, 3.19, 237.62, 0.00, 0.00, 0.000, 0.000, 0.000, 10:47:51.219
182, -5.54, 233.08, 0.00, 0.00, 0.000, 0.000, 0.000, 10:47:51.219
183, 0.94, 230.59, 0.00, 0.00, 0.000, 0.000, 0.000, 10:47:51.231
184, 9.13, 236.89, 0.00, 0.00, 0.000, 0.000, 0.000, 10:47:51.231
185, 1.97, 237.41, 0.00, 0.00, 0.000, 0.000, 0.000, 10:47:51.231
186, -2.53, 237.16, 0.00, 0.00, 0.000, 0.000, 0.000, 10:47:51.231
187, 0.71, 234.68, 0.00, 0.00, 0.000, 0.000, 0.000, 10:47:51.246
188, 9.87, 240.33, 0.00, 0.00, 0.000, 0.000, 0.000, 10:47:51.246
189, 1.51, 238.92, 0.00, 0.00, 0.000, 0.000, 0.000, 10:47:51.261
190, -4.00, 235.18, 0.00, 0.00, 0.000, 0.000, 0.000, 10:47:51.261
191, 2.43, 235.37, 0.00, 0.00, 0.000, 0.000, 0.000, 10:47:51.261
192, 14.01, 236.37, 0.00, 0.00, 0.000, 0.000, 0.000, 10:47:51.261
193, 6.64, 239.99, 0.00, 0.00, 0.000, 0.000, 0.000, 10:47:51.276
194, -8.35, 234.89, 0.00, 0.00, 0.000, 0.000, 0.000, 10:47:51.276
195, 4.74, 233.80, 0.00, 0.00, 0.000, 0.000, 0.000, 10:47:51.291
196, 12.09, 238.17, 0.00, 0.00, 0.000, 0.000, 0.000, 10:47:51.292
197, 8.22, 239.90, 0.00, 0.00, 0.000, 0.000, 0.000, 10:47:51.292
198, -5.79, 233.41, 0.00, 0.00, 0.000, 0.000, 0.000, 10:47:51.292
199, -1.86, 236.50, 0.00, 0.00, 0.000, 0.000, 0.000, 10:47:51.321
200, 7.85, 240.03, 0.00, 0.00, 0.000, 0.000, 0.000, 10:47:51.321
0, 3.55, 242.61, 0.00, 0.00, 0.000, 0.000, 0.000, 10:47:51.321
1, -8.23, 231.74, 0.00, 0.00, 0.000, 0.000, 0.000, 10:47:51.322
2, 0.68, 233.09, 0.00, 0.00, 0.000, 0.000, 0.000, 10:47:51.322
3, 8.01, 234.85, 0.00, 0.00, 0.000, 0.000, 0.000, 10:47:51.323
4, -0.98, 235.26, 0.00, 0.00, 0.000, 0.000, 0.000, 10:47:51.323
5, -6.53, 233.50, 0.00, 0.00, 0.000, 0.000, 0.000, 10:47:51.336
6, 5.42, 232.30, 0.00, 0.00, 0.000, 0.000, 0.000, 10:47:51.336
7, 11.02, 234.03, 0.00, 0.00, 0.000, 0.000, 0.000, 10:47:51.358
8, 5.94, 237.62, 0.00, 0.00, 0.000, 0.000, 0.000, 10:47:51.359
9, -9.50, 236.83, 0.00, 0.00, 0.000, 0.000, 0.000, 10:47:51.366
10, 2.63, 235.01, 0.00, 0.00, 0.000, 0.000, 0.000, 10:47:51.366
11, 16.20, 238.42, 0.00, 0.00, 0.000, 0.000, 0.000, 10:47:51.366
12, 1.94, 238.09, 0.00, 0.00, 0.000, 0.000, 0.000, 10:47:51.366
13, -7.31, 236.76, 0.00, 0.00, 0.000, 0.000, 0.000, 10:47:51.382
14, -3.20, 233.45, 0.00, 0.00, 0.000, 0.000, 0.000, 10:47:51.382
15, 10.51, 239.18, 0.00, 0.00, 0.000, 0.000, 0.000, 10:47:51.396
16, 2.54, 236.65, 0.00, 0.00, 0.000, 0.000, 0.000, 10:47:51.396
17, -8.65, 232.56, 0.00, 0.00, 0.000, 0.000, 0.000, 10:47:51.396
18, 0.34, 235.82, 0.00, 0.00, 0.000, 0.000, 0.000, 10:47:51.396
19, 14.31, 238.30, 0.00, 0.00, 0.000, 0.000, 0.000, 10:47:51.411
20, 2.31, 236.33, 0.00, 0.00, 0.000, 0.000, 0.000, 10:47:51.411
21, -9.03, 233.34, 0.00, 0.00, 0.000, 0.000, 0.000, 10:47:51.426
22, -0.85, 230.10, 0.00, 0.00, 0.000, 0.000, 0.000, 10:47:51.427
23, 13.63, 230.90, 0.00, 0.00, 0.000, 0.000, 0.000, 10:47:51.427
24, 9.69, 234.68, 0.00, 0.00, 0.000, 0.000, 0.000, 10:47:51.427
25, -11.59, 231.21, 0.00, 0.00, 0.000, 0.000, 0.000, 10:47:51.441
26, 1.88, 233.59, 0.00, 0.00, 0.000, 0.000, 0.000, 10:47:51.441
27, 14.28, 240.04, 0.00, 0.00, 0.000, 0.000, 0.000, 10:47:51.456
28, 3.82, 236.39, 0.00, 0.00, 0.000, 0.000, 0.000, 10:47:51.456
29, -11.20, 234.10, 0.00, 0.00, 0.000, 0.000, 0.000, 10:47:51.457
30, -2.35, 236.86, 0.00, 0.00, 0.000, 0.000, 0.000, 10:47:51.457
31, 6.88, 239.46, 0.00, 0.00, 0.000, 0.000, 0.000, 10:47:51.470
32, 4.11, 241.19, 0.00, 0.00, 0.000, 0.000, 0.000, 10:47:51.471
33, -6.02, 240.24, 0.00, 0.00, 0.000, 0.000, 0.000, 10:47:51.485
34, -1.30, 237.78, 0.00, 0.00, 0.000, 0.000, 0.000, 10:47:51.486
35, 8.05, 236.81, 0.00, 0.00, 0.000, 0.000, 0.000, 10:47:51.486
36, 0.79, 237.85, 0.00, 0.00, 0.000, 0.000, 0.000, 10:47:51.486
37, -12.72, 235.43, 0.00, 0.00, 0.000, 0.000, 0.000, 10:47:51.501
38, 0.08, 234.40, 0.00, 0.00, 0.000, 0.000, 0.000, 10:47:51.501
39, 6.75, 236.28, 0.00, 0.00, 0.000, 0.000, 0.000, 10:47:51.516
40, 1.87, 236.48, 0.00, 0.00, 0.000, 0.000, 0.000, 10:47:51.516
41, -5.91, 237.65, 0.00, 0.00, 0.000, 0.000, 0.000, 10:47:51.516
42, -1.34, 237.74, 0.00, 0.00, 0.000, 0.000, 0.000, 10:47:51.516
43, 8.49, 237.92, 0.00, 0.00, 0.000, 0.000, 0.000, 10:47:51.531
44, 5.82, 242.05, 0.00, 0.00, 0.000, 0.000, 0.000, 10:47:51.531
45, -7.88, 236.77, 0.00, 0.00, 0.000, 0.000, 0.000, 10:47:51.546
46, 2.20, 237.37, 0.00, 0.00, 0.000, 0.000, 0.000, 10:47:51.546
47, 7.20, 239.08, 0.00, 0.00, 0.000, 0.000, 0.000, 10:47:51.546
48, 3.84, 237.20, 0.00, 0.00, 0.000, 0.000, 0.000, 10:47:51.546
49, -8.29, 232.88, 0.00, 0.00, 0.000, 0.000, 0.000, 10:47:51.561
50, -2.83, 232.50, 0.00, 0.00, 0.000, 0.000, 0.000, 10:47:51.561
51, 9.04, 235.48, 0.00, 0.00, 0.000, 0.000, 0.000, 10:47:51.576
52, 3.26, 234.83, 0.00, 0.00, 0.000, 0.000, 0.000, 10:47:51.576
53, -11.10, 233.77, 0.00, 0.00, 0.000, 0.000, 0.000, 10:47:51.576
54, 1.99, 238.82, 0.00, 0.00, 0.000, 0.000, 0.000, 10:47:51.576
55, 10.95, 242.73, 0.00, 0.00, 0.000, 0.000, 0.000, 10:47:51.591
56, 7.45, 241.34, 0.00, 0.00, 0.000, 0.000, 0.000, 10:47:51.591
57, -3.60, 238.11, 0.00, 0.00, 0.000, 0.000, 0.000, 10:47:51.606
58, 4.00, 237.87, 0.00, 0.00, 0.000, 0.000, 0.000, 10:47:51.606
59, 9.43, 236.07, 0.00, 0.00, 0.000, 0.000, 0.000, 10:47:51.607
60, 2.11, 235.43, 0.00, 0.00, 0.000, 0.000, 0.000, 10:47:51.607
61, -3.24, 232.98, 0.00, 0.00, 0.000, 0.000, 0.000, 10:47:51.621
62, 7.07, 236.23, 0.00, 0.00, 0.000, 0.000, 0.000, 10:47:51.621
63, 6.95, 239.54, 0.00, 0.00, 0.000, 0.000, 0.000, 10:47:51.635
64, 2.76, 238.78, 0.00, 0.00, 0.000, 0.000, 0.000, 10:47:51.635
65, -0.57, 237.28, 0.00, 0.00, 0.000, 0.000, 0.000, 10:47:51.636
66, 1.20, 234.14, 0.00, 0.00, 0.000, 0.000, 0.000, 10:47:51.636
67, 10.58, 233.18, 0.00, 0.00, 0.000, 0.000, 0.000, 10:47:51.658
68, 13.02, 237.03, 0.00, 0.00, 0.000, 0.000, 0.000, 10:47:51.658
69, -3.57, 236.06, 0.00, 0.00, 0.000, 0.000, 0.000, 10:47:51.666
70, -2.63, 232.00, 0.00, 0.00, 0.000, 0.000, 0.000, 10:47:51.666
71, 13.47, 234.76, 0.00, 0.00, 0.000, 0.000, 0.000, 10:47:51.666
72, 3.82, 237.92, 0.00, 0.00, 0.000, 0.000, 0.000, 10:47:51.667
73, -3.67, 233.65, 0.00, 0.00, 0.000, 0.000, 0.000, 10:47:51.681
74, 3.95, 235.82, 0.00, 0.00, 0.000, 0.000, 0.000, 10:47:51.681
75, 15.85, 236.48, 0.00, 0.00, 0.000, 0.000, 0.000, 10:47:51.696
76, 5.24, 236.87, 0.00, 0.00, 0.000, 0.000, 0.000, 10:47:51.696
77, -10.46, 235.67, 0.00, 0.00, 0.000, 0.000, 0.000, 10:47:51.696
78, 3.75, 239.88, 0.00, 0.00, 0.000, 0.000, 0.000, 10:47:51.697
79, 13.42, 236.68, 0.00, 0.00, 0.000, 0.000, 0.000, 10:47:51.711
80, 6.44, 235.43, 0.00, 0.00, 0.000, 0.000, 0.000, 10:47:51.711
81, -8.41, 233.94, 0.00, 0.00, 0.000, 0.000, 0.000, 10:47:51.726
82, -8.29, 236.69, 0.00, 0.00, 0.000, 0.000, 0.000, 10:47:51.726
83, 19.48, 242.84, 0.00, 0.00, 0.000, 0.000, 0.000, 10:47:51.726
84, 4.58, 238.05, 0.00, 0.00, 0.000, 0.000, 0.000, 10:47:51.726
85, -8.08, 237.37, 0.00, 0.00, 0.000, 0.000, 0.000, 10:47:51.741
86, -0.65, 235.92, 0.00, 0.00, 0.000, 0.000, 0.000, 10:47:51.741
87, 15.71, 238.61, 0.00, 0.00, 0.000, 0.000, 0.000, 10:47:51.756
88, 7.85, 239.87, 0.00, 0.00, 0.000, 0.000, 0.000, 10:47:51.756
89, -4.81, 234.93, 0.00, 0.00, 0.000, 0.000, 0.000, 10:47:51.756
90, -0.80, 236.38, 0.00, 0.00, 0.000, 0.000, 0.000, 10:47:51.757
91, 12.08, 240.65, 0.00, 0.00, 0.000, 0.000, 0.000, 10:47:51.770
92, 4.32, 239.02, 0.00, 0.00, 0.000, 0.000, 0.000, 10:47:51.770
93, -8.23, 233.67, 0.00, 0.00, 0.000, 0.000, 0.000, 10:47:51.786
94, 1.04, 235.85, 0.00, 0.00, 0.000, 0.000, 0.000, 10:47:51.786
95, 10.06, 238.47, 0.00, 0.00, 0.000, 0.000, 0.000, 10:47:51.786
96, 1.79, 237.67, 0.00, 0.00, 0.000, 0.000, 0.000, 10:47:51.786
97, -8.39, 235.69, 0.00, 0.00, 0.000, 0.000, 0.000, 10:47:51.801
98, 4.18, 238.26, 0.00, 0.00, 0.000, 0.000, 0.000, 10:47:51.801
99, 15.30, 240.87, 0.00, 0.00, 0.000, 0.000, 0.000, 10:47:51.816
100, 4.95, 243.74, 0.00, 0.00, 0.000, 0.000, 0.000, 10:47:51.816
101, -4.21, 243.09, 0.00, 0.00, 0.000, 0.000, 0.000, 10:47:51.816
102, -0.61, 241.82, 0.00, 0.00, 0.000, 0.000, 0.000, 10:47:51.816
103, 8.50, 240.61, 0.00, 0.00, 0.000, 0.000, 0.000, 10:47:51.831
104, 2.46, 237.61, 0.00, 0.00, 0.000, 0.000, 0.000, 10:47:51.831
105, -7.18, 234.89, 0.00, 0.00, 0.000, 0.000, 0.000, 10:47:51.846
106, -5.23, 233.20, 0.00, 0.00, 0.000, 0.000, 0.000, 10:47:51.846
107, 14.93, 237.94, 0.00, 0.00, 0.000, 0.000, 0.000, 10:47:51.846
108, 6.94, 237.93, 0.00, 0.00, 0.000, 0.000, 0.000, 10:47:51.846
109, -7.04, 236.85, 0.00, 0.00, 0.000, 0.000, 0.000, 10:47:51.861
110, -0.59, 237.79, 0.00, 0.00, 0.000, 0.000, 0.000, 10:47:51.861
111, 8.75, 237.92, 0.00, 0.00, 0.000, 0.000, 0.000, 10:47:51.876
112, 11.76, 242.15, 0.00, 0.00, 0.000, 0.000, 0.000, 10:47:51.876
113, -2.00, 236.98, 0.00, 0.00, 0.000, 0.000, 0.000, 10:47:51.876
114, 4.06, 237.56, 0.00, 0.00, 0.000, 0.000, 0.000, 10:47:51.876
115, 7.28, 241.01, 0.00, 0.00, 0.000, 0.000, 0.000, 10:47:51.891
116, 7.03, 240.99, 0.00, 0.00, 0.000, 0.000, 0.000, 10:47:51.891
117, -3.46, 233.95, 0.00, 0.00, 0.000, 0.000, 0.000, 10:47:51.906
118, 2.12, 239.16, 0.00, 0.00, 0.000, 0.000, 0.000, 10:47:51.906
119, 8.47, 236.99, 0.00, 0.00, 0.000, 0.000, 0.000, 10:47:51.907
120, 5.83, 239.97, 0.00, 0.00, 0.000, 0.000, 0.000, 10:47:51.907
121, -5.44, 231.86, 0.00, 0.00, 0.000, 0.000, 0.000, 10:47:51.921
122, -1.41, 234.71, 0.00, 0.00, 0.000, 0.000, 0.000, 10:47:51.921
123, 7.83, 236.29, 0.00, 0.00, 0.000, 0.000, 0.000, 10:47:51.935
124, 2.54, 240.82, 0.00, 0.00, 0.000, 0.000, 0.000, 10:47:51.936
125, -5.87, 232.64, 0.00, 0.00, 0.000, 0.000, 0.000, 10:47:51.936
126, -3.21, 232.14, 0.00, 0.00, 0.000, 0.000, 0.000, 10:47:51.936
127, 6.19, 237.57, 0.00, 0.00, 0.000, 0.000, 0.000, 10:47:51.951
128, 4.85, 239.85, 0.00, 0.00, 0.000, 0.000, 0.000, 10:47:51.951
129, -5.53, 229.89, 0.00, 0.00, 0.000, 0.000, 0.000, 10:47:51.966
130, -3.00, 235.02, 0.00, 0.00, 0.000, 0.000, 0.000, 10:47:51.966
131, 15.72, 240.97, 0.00, 0.00, 0.000, 0.000, 0.000, 10:47:51.967
132, 5.67, 237.25, 0.00, 0.00, 0.000, 0.000, 0.000, 10:47:51.967
133, -7.07, 234.29, 0.00, 0.00, 0.000, 0.000, 0.000, 10:47:51.982
134, 1.14, 239.78, 0.00, 0.00, 0.000, 0.000, 0.000, 10:47:51.982
135, 10.84, 240.80, 0.00, 0.00, 0.000, 0.000, 0.000, 10:47:51.996
136, 5.22, 243.41, 0.00, 0.00, 0.000, 0.000, 0.000, 10:47:51.996
137, -6.09, 240.59, 0.00, 0.00, 0.000, 0.000, 0.000, 10:47:51.996
138, 2.88, 240.91, 0.00, 0.00, 0.000, 0.000, 0.000, 10:47:51.996
139, 9.95, 244.93, 0.00, 0.00, 0.000, 0.000, 0.000, 10:47:52.012
140, 2.69, 242.19, 0.00, 0.00, 0.000, 0.000, 0.000, 10:47:52.012
141, 2.48, 240.72, 0.00, 0.00, 0.000, 0.000, 0.000, 10:47:52.026
142, -0.27, 241.24, 0.00, 0.00, 0.000, 0.000, 0.000, 10:47:52.026
143, 8.64, 242.79, 0.00, 0.00, 0.000, 0.000, 0.000, 10:47:52.026
144, 5.08, 243.66, 0.00, 0.00, 0.000, 0.000, 0.000, 10:47:52.026
145, -5.45, 237.89, 0.00, 0.00, 0.000, 0.000, 0.000, 10:47:52.041
146, -1.82, 235.98, 0.00, 0.00, 0.000, 0.000, 0.000, 10:47:52.041
147, 16.05, 238.50, 0.00, 0.00, 0.000, 0.000, 0.000, 10:47:52.056
148, 2.16, 238.60, 0.00, 0.00, 0.000, 0.000, 0.000, 10:47:52.056
149, 0.88, 240.29, 0.00, 0.00, 0.000, 0.000, 0.000, 10:47:52.057
150, 1.74, 234.93, 0.00, 0.00, 0.000, 0.000, 0.000, 10:47:52.057
151, 9.35, 239.45, 0.00, 0.00, 0.000, 0.000, 0.000, 10:47:52.070
152, 10.88, 238.48, 0.00, 0.00, 0.000, 0.000, 0.000, 10:47:52.070
153, -3.99, 235.62, 0.00, 0.00, 0.000, 0.000, 0.000, 10:47:52.086
154, 1.54, 235.42, 0.00, 0.00, 0.000, 0.000, 0.000, 10:47:52.086
155, 5.26, 233.37, 0.00, 0.00, 0.000, 0.000, 0.000, 10:47:52.087
156, 8.81, 239.28, 0.00, 0.00, 0.000, 0.000, 0.000, 10:47:52.087
157, -2.38, 236.91, 0.00, 0.00, 0.000, 0.000, 0.000, 10:47:52.101
158, 0.59, 230.19, 0.00, 0.00, 0.000, 0.000, 0.000, 10:47:52.101
159, 12.66, 231.85, 0.00, 0.00, 0.000, 0.000, 0.000, 10:47:52.116
160, 8.77, 236.60, 0.00, 0.00, 0.000, 0.000, 0.000, 10:47:52.116
161, -3.13, 234.61, 0.00, 0.00, 0.000, 0.000, 0.000, 10:47:52.116
162, -1.90, 234.40, 0.00, 0.00, 0.000, 0.000, 0.000, 10:47:52.116
163, 10.09, 234.56, 0.00, 0.00, 0.000, 0.000, 0.000, 10:47:52.131
164, 9.32, 234.68, 0.00, 0.00, 0.000, 0.000, 0.000, 10:47:52.131
165, -6.17, 233.13, 0.00, 0.00, 0.000, 0.000, 0.000, 10:47:52.146
166, 0.40, 235.71, 0.00, 0.00, 0.000, 0.000, 0.000, 10:47:52.146
167, 10.77, 235.91, 0.00, 0.00, 0.000, 0.000, 0.000, 10:47:52.146
168, 5.90, 233.22, 0.00, 0.00, 0.000, 0.000, 0.000, 10:47:52.146
169, 2.03, 234.95, 0.00, 0.00, 0.000, 0.000, 0.000, 10:47:52.161
170, -0.08, 227.93, 0.00, 0.00, 0.000, 0.000, 0.000, 10:47:52.162
171, 16.05, 231.02, 0.00, 0.00, 0.000, 0.000, 0.000, 10:47:52.176
172, 8.70, 227.70, 0.00, 0.00, 0.000, 0.000, 0.000, 10:47:52.176
173, -2.72, 226.51, 0.00, 0.00, 0.000, 0.000, 0.000, 10:47:52.177
174, 2.83, 229.55, 0.00, 0.00, 0.000, 0.000, 0.000, 10:47:52.177
175, 6.96, 232.06, 0.00, 0.00, 0.000, 0.000, 0.000, 10:47:52.192
176, 6.12, 232.66, 0.00, 0.00, 0.000, 0.000, 0.000, 10:47:52.192
177, -2.80, 229.80, 0.00, 0.00, 0.000, 0.000, 0.000, 10:47:52.206
178, 4.02, 232.33, 0.00, 0.00, 0.000, 0.000, 0.000, 10:47:52.206
179, 12.64, 231.16, 0.00, 0.00, 0.000, 0.000, 0.000, 10:47:52.206
180, 6.00, 229.83, 0.00, 0.00, 0.000, 0.000, 0.000, 10:47:52.206
181, -2.86, 229.20, 0.00, 0.00, 0.000, 0.000, 0.000, 10:47:52.222
182, 4.01, 231.70, 0.00, 0.00, 0.000, 0.000, 0.000, 10:47:52.222
183, 12.15, 232.26, 0.00, 0.00, 0.000, 0.000, 0.000, 10:47:52.236
184, 5.65, 229.83, 0.00, 0.00, 0.000, 0.000, 0.000, 10:47:52.236
185, -1.12, 230.18, 0.00, 0.00, 0.000, 0.000, 0.000, 10:47:52.236
186, -0.43, 228.36, 0.00, 0.00, 0.000, 0.000, 0.000, 10:47:52.236
187, 9.15, 226.71, 0.00, 0.00, 0.000, 0.000, 0.000, 10:47:52.251
188, 6.56, 225.30, 0.00, 0.00, 0.000, 0.000, 0.000, 10:47:52.251
189, -5.02, 222.18, 0.00, 0.00, 0.000, 0.000, 0.000, 10:47:52.266
190, 0.91, 223.31, 0.00, 0.00, 0.000, 0.000, 0.000, 10:47:52.266
191, 9.70, 224.81, 0.00, 0.00, 0.000, 0.000, 0.000, 10:47:52.266
192, 4.81, 225.04, 0.00, 0.00, 0.000, 0.000, 0.000, 10:47:52.266
193, -5.66, 224.44, 0.00, 0.00, 0.000, 0.000, 0.000, 10:47:52.296
194, 0.66, 222.82, 0.00, 0.00, 0.000, 0.000, 0.000, 10:47:52.297
195, 9.94, 223.87, 0.00, 0.00, 0.000, 0.000, 0.000, 10:47:52.297
196, 4.22, 227.22, 0.00, 0.00, 0.000, 0.000, 0.000, 10:47:52.297
197, -0.12, 229.45, 0.00, 0.00, 0.000, 0.000, 0.000, 10:47:52.297
198, -0.13, 225.08, 0.00, 0.00, 0.000, 0.000, 0.000, 10:47:52.297
199, 12.58, 227.83, 0.00, 0.00, 0.000, 0.000, 0.000, 10:47:52.311
200, 4.36, 229.40, 0.00, 0.00, 0.000, 0.000, 0.000, 10:47:52.311
0, -1.17, 225.11, 0.00, 0.00, 0.000, 0.000, 0.000, 10:47:52.311
1, 2.88, 229.43, 0.00, 0.00, 0.000, 0.000, 0.000, 10:47:52.326
2, 20.66, 235.12, 0.00, 0.00, 0.000, 0.000, 0.000, 10:47:52.326
3, 7.39, 233.88, 0.00, 0.00, 0.000, 0.000, 0.000, 10:47:52.341
4, -8.86, 230.80, 0.00, 0.00, 0.000, 0.000, 0.000, 10:47:52.342
5, -0.67, 224.72, 0.00, 0.00, 0.000, 0.000, 0.000, 10:47:52.342
6, 7.45, 230.02, 0.00, 0.00, 0.000, 0.000, 0.000, 10:47:52.342
7, 10.07, 232.58, 0.00, 0.00, 0.000, 0.000, 0.000, 10:47:52.356
8, -1.97, 229.23, 0.00, 0.00, 0.000, 0.000, 0.000, 10:47:52.356
9, -1.82, 230.45, 0.00, 0.00, 0.000, 0.000, 0.000, 10:47:52.371
10, 10.44, 223.58, 0.00, 0.00, 0.000, 0.000, 0.000, 10:47:52.371
11, 8.92, 224.37, 0.00, 0.00, 0.000, 0.000, 0.000, 10:47:52.372
12, -8.56, 222.43, 0.00, 0.00, 0.000, 0.000, 0.000, 10:47:52.372
13, -0.61, 219.67, 0.00, 0.00, 0.000, 0.000, 0.000, 10:47:52.387
14, 10.69, 227.33, 0.00, 0.00, 0.000, 0.000, 0.000, 10:47:52.387
15, 7.68, 224.30, 0.00, 0.00, 0.000, 0.000, 0.000, 10:47:52.401
16, -8.35, 224.37, 0.00, 0.00, 0.000, 0.000, 0.000, 10:47:52.401
17, 0.85, 224.74, 0.00, 0.00, 0.000, 0.000, 0.000, 10:47:52.402
18, 19.09, 227.34, 0.00, 0.00, 0.000, 0.000, 0.000, 10:47:52.402
19, 16.58, 229.56, 0.00, 0.00, 0.000, 0.000, 0.000, 10:47:52.416
20, -1.68, 227.05, 0.00, 0.00, 0.000, 0.000, 0.000, 10:47:52.416
21, -2.70, 229.26, 0.00, 0.00, 0.000, 0.000, 0.000, 10:47:52.431
22, 8.44, 225.96, 0.00, 0.00, 0.000, 0.000, 0.000, 10:47:52.431
23, 4.86, 230.39, 0.00, 0.00, 0.000, 0.000, 0.000, 10:47:52.431
24, -10.63, 222.84, 0.00, 0.00, 0.000, 0.000, 0.000, 10:47:52.431
25, -0.17, 225.78, 0.00, 0.00, 0.000, 0.000, 0.000, 10:47:52.446
26, 11.36, 226.07, 0.00, 0.00, 0.000, 0.000, 0.000, 10:47:52.446
27, 3.12, 225.88, 0.00, 0.00, 0.000, 0.000, 0.000, 10:47:52.461
28, -5.83, 227.21, 0.00, 0.00, 0.000, 0.000, 0.000, 10:47:52.461
29, -3.52, 229.46, 0.00, 0.00, 0.000, 0.000, 0.000, 10:47:52.462
30, 9.36, 230.01, 0.00, 0.00, 0.000, 0.000, 0.000, 10:47:52.462
31, 5.67, 229.36, 0.00, 0.00, 0.000, 0.000, 0.000, 10:47:52.476
32, -5.75, 227.53, 0.00, 0.00, 0.000, 0.000, 0.000, 10:47:52.476
33, -7.72, 223.41, 0.00, 0.00, 0.000, 0.000, 0.000, 10:47:52.491
34, 18.50, 226.92, 0.00, 0.00, 0.000, 0.000, 0.000, 10:47:52.491
35, 15.61, 229.27, 0.00, 0.00, 0.000, 0.000, 0.000, 10:47:52.491
36, 0.67, 227.88, 0.00, 0.00, 0.000, 0.000, 0.000, 10:47:52.491
37, -0.92, 232.17, 0.00, 0.00, 0.000, 0.000, 0.000, 10:47:52.505
38, 12.58, 229.80, 0.00, 0.00, 0.000, 0.000, 0.000, 10:47:52.506
39, 8.99, 229.96, 0.00, 0.00, 0.000, 0.000, 0.000, 10:47:52.521
40, -6.19, 227.36, 0.00, 0.00, 0.000, 0.000, 0.000, 10:47:52.521
41, -0.45, 232.11, 0.00, 0.00, 0.000, 0.000, 0.000, 10:47:52.529
42, 10.67, 230.69, 0.00, 0.00, 0.000, 0.000, 0.000, 10:47:52.529
43, 4.89, 234.32, 0.00, 0.00, 0.000, 0.000, 0.000, 10:47:52.536
44, -6.13, 227.27, 0.00, 0.00, 0.000, 0.000, 0.000, 10:47:52.536
45, 1.68, 233.37, 0.00, 0.00, 0.000, 0.000, 0.000, 10:47:52.551
46, 10.23, 233.61, 0.00, 0.00, 0.000, 0.000, 0.000, 10:47:52.551
47, 11.79, 232.22, 0.00, 0.00, 0.000, 0.000, 0.000, 10:47:52.552
48, -15.70, 225.87, 0.00, 0.00, 0.000, 0.000, 0.000, 10:47:52.552
49, 7.03, 231.05, 0.00, 0.00, 0.000, 0.000, 0.000, 10:47:52.566
50, 15.26, 230.87, 0.00, 0.00, 0.000, 0.000, 0.000, 10:47:52.566
51, 9.22, 232.47, 0.00, 0.00, 0.000, 0.000, 0.000, 10:47:52.583
52, -1.09, 232.44, 0.00, 0.00, 0.000, 0.000, 0.000, 10:47:52.583
53, -3.82, 228.08, 0.00, 0.00, 0.000, 0.000, 0.000, 10:47:52.583
54, 10.93, 226.57, 0.00, 0.00, 0.000, 0.000, 0.000, 10:47:52.583
55, 9.27, 234.05, 0.00, 0.00, 0.000, 0.000, 0.000, 10:47:52.596
56, -3.96, 230.12, 0.00, 0.00, 0.000, 0.000, 0.000, 10:47:52.596
57, -3.55, 228.58, 0.00, 0.00, 0.000, 0.000, 0.000, 10:47:52.611
58, 7.10, 231.71, 0.00, 0.00, 0.000, 0.000, 0.000, 10:47:52.611
59, 3.09, 231.68, 0.00, 0.00, 0.000, 0.000, 0.000, 10:47:52.613
60, -5.81, 224.56, 0.00, 0.00, 0.000, 0.000, 0.000, 10:47:52.613
61, 0.04, 234.82, 0.00, 0.00, 0.000, 0.000, 0.000, 10:47:52.626
62, 14.93, 227.80, 0.00, 0.00, 0.000, 0.000, 0.000, 10:47:52.626
63, 9.45, 229.07, 0.00, 0.00, 0.000, 0.000, 0.000, 10:47:52.641
64, -6.39, 224.95, 0.00, 0.00, 0.000, 0.000, 0.000, 10:47:52.641
65, -0.63, 225.78, 0.00, 0.00, 0.000, 0.000, 0.000, 10:47:52.641
66, -0.52, 225.52, 0.00, 0.00, 0.000, 0.000, 0.000, 10:47:52.641
67, 29.67, 228.43, 0.00, 0.00, 0.000, 0.000, 0.000, 10:47:52.656
68, -4.05, 226.17, 0.00, 0.00, 0.000, 0.000, 0.000, 10:47:52.656
69, -3.28, 224.53, 0.00, 0.00, 0.000, 0.000, 0.000, 10:47:52.671
70, 8.50, 228.13, 0.00, 0.00, 0.000, 0.000, 0.000, 10:47:52.671
71, 4.38, 228.73, 0.00, 0.00, 0.000, 0.000, 0.000, 10:47:52.672
72, 0.15, 226.20, 0.00, 0.00, 0.000, 0.000, 0.000, 10:47:52.672
73, 0.20, 225.68, 0.00, 0.00, 0.000, 0.000, 0.000, 10:47:52.686
74, 8.08, 228.83, 0.00, 0.00, 0.000, 0.000, 0.000, 10:47:52.686
75, 6.80, 230.83, 0.00, 0.00, 0.000, 0.000, 0.000, 10:47:52.701
76, -8.06, 231.75, 0.00, 0.00, 0.000, 0.000, 0.000, 10:47:52.701
77, 0.71, 227.73, 0.00, 0.00, 0.000, 0.000, 0.000, 10:47:52.701
78, 8.48, 227.89, 0.00, 0.00, 0.000, 0.000, 0.000, 10:47:52.701
79, 13.31, 233.11, 0.00, 0.00, 0.000, 0.000, 0.000, 10:47:52.716
80, -0.42, 227.53, 0.00, 0.00, 0.000, 0.000, 0.000, 10:47:52.716
81, -3.43, 226.25, 0.00, 0.00, 0.000, 0.000, 0.000, 10:47:52.731
82, 8.07, 230.92, 0.00, 0.00, 0.000, 0.000, 0.000, 10:47:52.731
83, 4.10, 230.87, 0.00, 0.00, 0.000, 0.000, 0.000, 10:47:52.732
84, -1.55, 228.38, 0.00, 0.00, 0.000, 0.000, 0.000, 10:47:52.732
85, -0.88, 226.83, 0.00, 0.00, 0.000, 0.000, 0.000, 10:47:52.746
86, 11.85, 231.05, 0.00, 0.00, 0.000, 0.000, 0.000, 10:47:52.746
87, 7.29, 228.80, 0.00, 0.00, 0.000, 0.000, 0.000, 10:47:52.761
88, -5.17, 228.38, 0.00, 0.00, 0.000, 0.000, 0.000, 10:47:52.761
89, -4.31, 228.57, 0.00, 0.00, 0.000, 0.000, 0.000, 10:47:52.762
90, 15.69, 232.60, 0.00, 0.00, 0.000, 0.000, 0.000, 10:47:52.762
91, 6.90, 233.70, 0.00, 0.00, 0.000, 0.000, 0.000, 10:47:52.776
92, -5.84, 231.95, 0.00, 0.00, 0.000, 0.000, 0.000, 10:47:52.776
93, -1.48, 233.80, 0.00, 0.00, 0.000, 0.000, 0.000, 10:47:52.792
94, 4.33, 230.60, 0.00, 0.00, 0.000, 0.000, 0.000, 10:47:52.792
95, 18.23, 237.87, 0.00, 0.00, 0.000, 0.000, 0.000, 10:47:52.793
96, -2.09, 231.87, 0.00, 0.00, 0.000, 0.000, 0.000, 10:47:52.793
97, -2.36, 230.93, 0.00, 0.00, 0.000, 0.000, 0.000, 10:47:52.806
98, 7.10, 229.36, 0.00, 0.00, 0.000, 0.000, 0.000, 10:47:52.806
99, 4.43, 232.30, 0.00, 0.00, 0.000, 0.000, 0.000, 10:47:52.822
100, -6.14, 228.72, 0.00, 0.00, 0.000, 0.000, 0.000, 10:47:52.822
101, 0.24, 230.89, 0.00, 0.00, 0.000, 0.000, 0.000, 10:47:52.822
102, 10.98, 227.99, 0.00, 0.00, 0.000, 0.000, 0.000, 10:47:52.822
103, 7.45, 230.37, 0.00, 0.00, 0.000, 0.000, 0.000, 10:47:52.851
104, -2.50, 230.33, 0.00, 0.00, 0.000, 0.000, 0.000, 10:47:52.851
105, -1.55, 223.33, 0.00, 0.00, 0.000, 0.000, 0.000, 10:47:52.851
106, 8.52, 228.98, 0.00, 0.00, 0.000, 0.000, 0.000, 10:47:52.852
107, 3.07, 232.82, 0.00, 0.00, 0.000, 0.000, 0.000, 10:47:52.852
108, -3.48, 231.56, 0.00, 0.00, 0.000, 0.000, 0.000, 10:47:52.852
109, -0.44, 232.87, 0.00, 0.00, 0.000, 0.000, 0.000, 10:47:52.866
110, 17.86, 236.26, 0.00, 0.00, 0.000, 0.000, 0.000, 10:47:52.866
111, 13.14, 234.32, 0.00, 0.00, 0.000, 0.000, 0.000, 10:47:52.881
112, -9.46, 230.78, 0.00, 0.00, 0.000, 0.000, 0.000, 10:47:52.881
113, 1.63, 231.98, 0.00, 0.00, 0.000, 0.000, 0.000, 10:47:52.881
114, 13.74, 235.61, 0.00, 0.00, 0.000, 0.000, 0.000, 10:47:52.881
115, 8.82, 232.97, 0.00, 0.00, 0.000, 0.000, 0.000, 10:47:52.897
116, -4.28, 233.64, 0.00, 0.00, 0.000, 0.000, 0.000, 10:47:52.897
117, 0.45, 231.91, 0.00, 0.00, 0.000, 0.000, 0.000, 10:47:52.911
118, 3.06, 232.57, 0.00, 0.00, 0.000, 0.000, 0.000, 10:47:52.911
119, 11.31, 232.29, 0.00, 0.00, 0.000, 0.000, 0.000, 10:47:52.912
120, -2.29, 227.15, 0.00, 0.00, 0.000, 0.000, 0.000, 10:47:52.912
121, -2.94, 232.00, 0.00, 0.00, 0.000, 0.000, 0.000, 10:47:52.926
122, 11.65, 231.71, 0.00, 0.00, 0.000, 0.000, 0.000, 10:47:52.926
123, 9.56, 234.99, 0.00, 0.00, 0.000, 0.000, 0.000, 10:47:52.941
124, -8.67, 233.87, 0.00, 0.00, 0.000, 0.000, 0.000, 10:47:52.942
125, -4.53, 234.65, 0.00, 0.00, 0.000, 0.000, 0.000, 10:47:52.942
126, 11.42, 237.56, 0.00, 0.00, 0.000, 0.000, 0.000, 10:47:52.942
127, 7.23, 235.56, 0.00, 0.00, 0.000, 0.000, 0.000, 10:47:52.956
128, -8.78, 231.40, 0.00, 0.00, 0.000, 0.000, 0.000, 10:47:52.956
129, 4.11, 237.35, 0.00, 0.00, 0.000, 0.000, 0.000, 10:47:52.971
130, 6.44, 235.05, 0.00, 0.00, 0.000, 0.000, 0.000, 10:47:52.972
131, 10.31, 239.76, 0.00, 0.00, 0.000, 0.000, 0.000, 10:47:52.972
132, -13.13, 229.42, 0.00, 0.00, 0.000, 0.000, 0.000, 10:47:52.972
133, 3.02, 236.55, 0.00, 0.00, 0.000, 0.000, 0.000, 10:47:52.986
134, 13.09, 238.15, 0.00, 0.00, 0.000, 0.000, 0.000, 10:47:52.986
135, 9.83, 232.26, 0.00, 0.00, 0.000, 0.000, 0.000, 10:47:53.001
136, -3.58, 233.45, 0.00, 0.00, 0.000, 0.000, 0.000, 10:47:53.001
137, -1.64, 227.02, 0.00, 0.00, 0.000, 0.000, 0.000, 10:47:53.001
138, 11.14, 230.13, 0.00, 0.00, 0.000, 0.000, 0.000, 10:47:53.001
139, 5.55, 232.12, 0.00, 0.00, 0.000, 0.000, 0.000, 10:47:53.015
140, -1.08, 226.58, 0.00, 0.00, 0.000, 0.000, 0.000, 10:47:53.015
141, 0.16, 226.01, 0.00, 0.00, 0.000, 0.000, 0.000, 10:47:53.031
142, 8.89, 227.95, 0.00, 0.00, 0.000, 0.000, 0.000, 10:47:53.031
143, 7.11, 228.39, 0.00, 0.00, 0.000, 0.000, 0.000, 10:47:53.031
144, -2.31, 228.35, 0.00, 0.00, 0.000, 0.000, 0.000, 10:47:53.031
145, -0.37, 228.03, 0.00, 0.00, 0.000, 0.000, 0.000, 10:47:53.046
146, 14.50, 230.84, 0.00, 0.00, 0.000, 0.000, 0.000, 10:47:53.046
147, 7.56, 235.03, 0.00, 0.00, 0.000, 0.000, 0.000, 10:47:53.061
148, -0.72, 228.98, 0.00, 0.00, 0.000, 0.000, 0.000, 10:47:53.061
149, -3.70, 228.17, 0.00, 0.00, 0.000, 0.000, 0.000, 10:47:53.062
150, 11.82, 230.06, 0.00, 0.00, 0.000, 0.000, 0.000, 10:47:53.062
151, 3.13, 229.65, 0.00, 0.00, 0.000, 0.000, 0.000, 10:47:53.076
152, -5.60, 227.98, 0.00, 0.00, 0.000, 0.000, 0.000, 10:47:53.076
153, 0.30, 230.60, 0.00, 0.00, 0.000, 0.000, 0.000, 10:47:53.091
154, 9.92, 234.89, 0.00, 0.00, 0.000, 0.000, 0.000, 10:47:53.091
155, 8.23, 233.41, 0.00, 0.00, 0.000, 0.000, 0.000, 10:47:53.092
156, -5.99, 227.23, 0.00, 0.00, 0.000, 0.000, 0.000, 10:47:53.092
157, -1.30, 225.44, 0.00, 0.00, 0.000, 0.000, 0.000, 10:47:53.106
158, 11.54, 225.37, 0.00, 0.00, 0.000, 0.000, 0.000, 10:47:53.106
159, 5.96, 225.39, 0.00, 0.00, 0.000, 0.000, 0.000, 10:47:53.121
160, -4.10, 221.86, 0.00, 0.00, 0.000, 0.000, 0.000, 10:47:53.121
161, -3.20, 222.97, 0.00, 0.00, 0.000, 0.000, 0.000, 10:47:53.122
162, 4.98, 220.61, 0.00, 0.00, 0.000, 0.000, 0.000, 10:47:53.122
163, 16.36, 225.76, 0.00, 0.00, 0.000, 0.000, 0.000, 10:47:53.135
164, -0.43, 223.38, 0.00, 0.00, 0.000, 0.000, 0.000, 10:47:53.136
165, -2.30, 224.55, 0.00, 0.00, 0.000, 0.000, 0.000, 10:47:53.151
166, 14.00, 226.48, 0.00, 0.00, 0.000, 0.000, 0.000, 10:47:53.151
167, 9.57, 227.22, 0.00, 0.00, 0.000, 0.000, 0.000, 10:47:53.151
168, -3.73, 226.86, 0.00, 0.00, 0.000, 0.000, 0.000, 10:47:53.151
169, -2.75, 221.46, 0.00, 0.00, 0.000, 0.000, 0.000, 10:47:53.166
170, 8.97, 232.30, 0.00, 0.00, 0.000, 0.000, 0.000, 10:47:53.166
171, 4.40, 224.11, 0.00, 0.00, 0.000, 0.000, 0.000, 10:47:53.182
172, -0.75, 229.84, 0.00, 0.00, 0.000, 0.000, 0.000, 10:47:53.182
173, 2.29, 227.08, 0.00, 0.00, 0.000, 0.000, 0.000, 10:47:53.182
174, 11.09, 227.62, 0.00, 0.00, 0.000, 0.000, 0.000, 10:47:53.182
175, 3.64, 229.20, 0.00, 0.00, 0.000, 0.000, 0.000, 10:47:53.196
176, -1.79, 230.14, 0.00, 0.00, 0.000, 0.000, 0.000, 10:47:53.196
177, -5.77, 228.97, 0.00, 0.00, 0.000, 0.000, 0.000, 10:47:53.212
178, 12.23, 227.87, 0.00, 0.00, 0.000, 0.000, 0.000, 10:47:53.212
179, 6.63, 229.51, 0.00, 0.00, 0.000, 0.000, 0.000, 10:47:53.212
180, -5.72, 225.54, 0.00, 0.00, 0.000, 0.000, 0.000, 10:47:53.212
181, -3.30, 223.70, 0.00, 0.00, 0.000, 0.000, 0.000, 10:47:53.226
182, 7.23, 225.24, 0.00, 0.00, 0.000, 0.000, 0.000, 10:47:53.226
183, 7.17, 226.30, 0.00, 0.00, 0.000, 0.000, 0.000, 10:47:53.241
184, -2.06, 227.27, 0.00, 0.00, 0.000, 0.000, 0.000, 10:47:53.241
185, -8.61, 226.09, 0.00, 0.00, 0.000, 0.000, 0.000, 10:47:53.241
186, 13.49, 228.82, 0.00, 0.00, 0.000, 0.000, 0.000, 10:47:53.241
187, -1.19, 230.79, 0.00, 0.00, 0.000, 0.000, 0.000, 10:47:53.263
188, -0.75, 229.62, 0.00, 0.00, 0.000, 0.000, 0.000, 10:47:53.263
189, -4.64, 224.76, 0.00, 0.00, 0.000, 0.000, 0.000, 10:47:53.271
190, 9.49, 231.66, 0.00, 0.00, 0.000, 0.000, 0.000, 10:47:53.271
191, 11.16, 231.60, 0.00, 0.00, 0.000, 0.000, 0.000, 10:47:53.271
192, -8.12, 228.49, 0.00, 0.00, 0.000, 0.000, 0.000, 10:47:53.271
193, -1.02, 228.01, 0.00, 0.00, 0.000, 0.000, 0.000, 10:47:53.286
194, 8.60, 228.78, 0.00, 0.00, 0.000, 0.000, 0.000, 10:47:53.286
195, 6.68, 227.77, 0.00, 0.00, 0.000, 0.000, 0.000, 10:47:53.301
196, -5.67, 227.90, 0.00, 0.00, 0.000, 0.000, 0.000, 10:47:53.301
197, -6.57, 225.27, 0.00, 0.00, 0.000, 0.000, 0.000, 10:47:53.302
198, 6.98, 229.48, 0.00, 0.00, 0.000, 0.000, 0.000, 10:47:53.302
199, 8.20, 230.21, 0.00, 0.00, 0.000, 0.000, 0.000, 10:47:53.316
200, -0.08, 232.05, 0.00, 0.00, 0.000, 0.000, 0.000, 10:47:53.316
0, -4.17, 229.37, 0.00, 0.00, 0.000, 0.000, 0.000, 10:47:53.316
1, 8.24, 230.73, 0.00, 0.00, 0.000, 0.000, 0.000, 10:47:53.331
2, 8.00, 234.03, 0.00, 0.00, 0.000, 0.000, 0.000, 10:47:53.331
3, -3.61, 229.86, 0.00, 0.00, 0.000, 0.000, 0.000, 10:47:53.346
4, -1.03, 231.27, 0.00, 0.00, 0.000, 0.000, 0.000, 10:47:53.346
