%OpenBCI Raw EEG Data
%
%Sample Rate = 200.0 Hz
%First Column = SampleIndex
%Last Column = Timestamp 
%Other Columns = EEG data in microvolts followed by Accel Data (in G) interleaved with Aux Data
0, -15.29, 175.41, 4.60, 6.28, 0.000, 0.000, 0.000, 11:17:57.548
1, -19.51, 174.29, 4.24, 7.85, 0.000, 0.000, 0.000, 11:17:57.560
2, 9.53, 193.11, 7.90, 9.47, 0.000, 0.000, 0.000, 11:17:57.561
3, 23.18, 195.78, 7.77, 10.37, 0.000, 0.000, 0.000, 11:17:57.575
4, -8.07, 180.64, 8.98, 8.64, 0.000, 0.000, 0.000, 11:17:57.575
5, -17.46, 177.98, 12.37, 6.63, 0.000, 0.000, 0.000, 11:17:57.575
6, 11.64, 195.17, 7.78, 11.82, 0.000, 0.000, 0.000, 11:17:57.576
7, 21.58, 198.78, 8.13, 12.12, 0.000, 0.000, 0.000, 11:17:57.590
8, -6.83, 181.04, 5.51, 10.88, 0.000, 0.000, 0.000, 11:17:57.590
9, -22.77, 176.44, 7.39, 5.12, 0.000, 0.000, 0.000, 11:17:57.604
10, 8.99, 194.14, 5.98, 6.62, 0.000, 0.000, 0.000, 11:17:57.604
11, 21.82, 195.77, 8.34, 10.42, 0.000, 0.000, 0.000, 11:17:57.605
12, -5.34, 177.19, 6.25, 12.16, 0.000, 0.000, 0.000, 11:17:57.605
13, -15.70, 178.75, 5.59, 8.77, 0.000, 0.000, 0.000, 11:17:57.620
14, 17.49, 195.84, 7.87, 7.18, 0.000, 0.000, 0.000, 11:17:57.620
15, 20.12, 196.50, 7.91, 7.87, 0.000, 0.000, 0.000, 11:17:57.635
16, -8.72, 179.81, 8.28, 5.46, 0.000, 0.000, 0.000, 11:17:57.635
17, -19.43, 178.44, 3.81, 6.54, 0.000, 0.000, 0.000, 11:17:57.635
18, 12.81, 196.83, 1.51, 9.71, 0.000, 0.000, 0.000, 11:17:57.635
19, 26.55, 198.91, 4.69, 7.05, 0.000, 0.000, 0.000, 11:17:57.650
20, -5.93, 181.63, 8.30, 9.53, 0.000, 0.000, 0.000, 11:17:57.650
21, -16.57, 175.92, 5.24, 4.57, 0.000, 0.000, 0.000, 11:17:57.664
22, 10.78, 196.32, 8.19, 2.34, 0.000, 0.000, 0.000, 11:17:57.664
23, 24.52, 201.42, 10.23, 10.94, 0.000, 0.000, 0.000, 11:17:57.665
24, -5.78, 178.87, 10.86, 4.97, 0.000, 0.000, 0.000, 11:17:57.665
25, -19.32, 178.04, 3.91, 10.10, 0.000, 0.000, 0.000, 11:17:57.680
26, 10.62, 194.45, 7.58, 4.48, 0.000, 0.000, 0.000, 11:17:57.680
27, 19.69, 196.49, 7.85, 6.57, 0.000, 0.000, 0.000, 11:17:57.695
28, -9.04, 179.57, 8.31, 7.01, 0.000, 0.000, 0.000, 11:17:57.695
29, -17.39, 175.84, 10.43, 8.19, 0.000, 0.000, 0.000, 11:17:57.695
30, 8.96, 195.14, 2.33, 6.81, 0.000, 0.000, 0.000, 11:17:57.695
31, 24.96, 199.02, 4.29, 10.15, 0.000, 0.000, 0.000, 11:17:57.710
32, -8.25, 181.40, 7.20, 3.57, 0.000, 0.000, 0.000, 11:17:57.710
33, -16.25, 175.61, 5.55, 7.88, 0.000, 0.000, 0.000, 11:17:57.725
34, 10.09, 192.60, 5.51, 6.35, 0.000, 0.000, 0.000, 11:17:57.725
35, 20.00, 201.58, 7.83, 5.85, 0.000, 0.000, 0.000, 11:17:57.725
36, -8.80, 183.65, 8.54, 8.05, 0.000, 0.000, 0.000, 11:17:57.725
37, -17.91, 179.65, 4.32, 6.54, 0.000, 0.000, 0.000, 11:17:57.740
38, 11.42, 200.33, 7.29, 9.08, 0.000, 0.000, 0.000, 11:17:57.741
39, 20.02, 203.30, 6.51, 9.24, 0.000, 0.000, 0.000, 11:17:57.755
40, -6.35, 187.20, 8.99, 12.90, 0.000, 0.000, 0.000, 11:17:57.755
41, -15.04, 181.91, 12.02, 7.80, 0.000, 0.000, 0.000, 11:17:57.755
42, 8.12, 198.91, 6.62, 10.32, 0.000, 0.000, 0.000, 11:17:57.755
43, 22.31, 202.90, 11.51, 12.36, 0.000, 0.000, 0.000, 11:17:57.770
44, -5.74, 184.49, 7.14, 7.03, 0.000, 0.000, 0.000, 11:17:57.770
45, -21.74, 181.65, 7.56, 10.44, 0.000, 0.000, 0.000, 11:17:57.785
46, 10.53, 203.16, 10.73, 8.44, 0.000, 0.000, 0.000, 11:17:57.785
47, 23.15, 209.66, 6.77, 5.77, 0.000, 0.000, 0.000, 11:17:57.785
48, -6.44, 187.24, 8.96, 7.25, 0.000, 0.000, 0.000, 11:17:57.785
49, -15.55, 188.53, 5.68, 7.80, 0.000, 0.000, 0.000, 11:17:57.806
50, 13.04, 202.23, 8.03, 9.27, 0.000, 0.000, 0.000, 11:17:57.806
51, 26.67, 204.55, 5.10, 6.86, 0.000, 0.000, 0.000, 11:17:57.815
52, -9.50, 183.28, 10.28, 10.49, 0.000, 0.000, 0.000, 11:17:57.815
53, -19.45, 176.33, 5.96, 9.52, 0.000, 0.000, 0.000, 11:17:57.815
54, 6.95, 202.59, 7.24, 8.37, 0.000, 0.000, 0.000, 11:17:57.815
55, 22.43, 204.00, 7.38, 5.23, 0.000, 0.000, 0.000, 11:17:57.830
56, -6.26, 184.80, 12.68, 10.88, 0.000, 0.000, 0.000, 11:17:57.830
57, -18.16, 179.81, 7.92, 7.20, 0.000, 0.000, 0.000, 11:17:57.845
58, 10.18, 199.37, 12.19, 5.75, 0.000, 0.000, 0.000, 11:17:57.845
59, 23.26, 202.59, 7.90, 5.70, 0.000, 0.000, 0.000, 11:17:57.845
60, -5.22, 185.25, 8.88, 8.01, 0.000, 0.000, 0.000, 11:17:57.846
61, -16.24, 181.93, 11.49, 7.88, 0.000, 0.000, 0.000, 11:17:57.860
62, 16.34, 197.60, 10.30, 4.74, 0.000, 0.000, 0.000, 11:17:57.861
63, 18.59, 196.71, 10.62, 10.65, 0.000, 0.000, 0.000, 11:17:57.875
64, -7.50, 179.50, 4.83, 7.00, 0.000, 0.000, 0.000, 11:17:57.875
65, -18.50, 180.47, 3.95, 5.65, 0.000, 0.000, 0.000, 11:17:57.875
66, 10.82, 189.97, 4.18, 5.31, 0.000, 0.000, 0.000, 11:17:57.875
67, 20.16, 196.45, 5.86, 8.22, 0.000, 0.000, 0.000, 11:17:57.890
68, -5.10, 180.16, 3.95, 8.83, 0.000, 0.000, 0.000, 11:17:57.890
69, -19.28, 174.37, 8.12, 4.73, 0.000, 0.000, 0.000, 11:17:57.904
70, 10.84, 192.66, 7.08, 5.80, 0.000, 0.000, 0.000, 11:17:57.904
71, 23.78, 195.22, 7.41, 6.91, 0.000, 0.000, 0.000, 11:17:57.905
72, -5.06, 174.08, 7.37, 10.81, 0.000, 0.000, 0.000, 11:17:57.905
73, -17.79, 178.05, 10.73, 11.92, 0.000, 0.000, 0.000, 11:17:57.920
74, 14.45, 193.44, 7.84, 9.72, 0.000, 0.000, 0.000, 11:17:57.920
75, 21.51, 193.83, 8.09, 14.73, 0.000, 0.000, 0.000, 11:17:57.935
76, -10.38, 177.12, 7.83, 11.73, 0.000, 0.000, 0.000, 11:17:57.935
77, -14.25, 174.32, 4.83, 9.53, 0.000, 0.000, 0.000, 11:17:57.935
78, 9.44, 191.83, 7.84, 8.12, 0.000, 0.000, 0.000, 11:17:57.935
79, 21.12, 197.34, 9.48, 7.37, 0.000, 0.000, 0.000, 11:17:57.950
80, -6.08, 179.85, 3.82, 10.92, 0.000, 0.000, 0.000, 11:17:57.950
81, -22.07, 173.32, 5.32, 8.96, 0.000, 0.000, 0.000, 11:17:57.965
82, 11.70, 196.99, 10.69, 10.84, 0.000, 0.000, 0.000, 11:17:57.965
83, 19.20, 199.33, 9.88, 9.63, 0.000, 0.000, 0.000, 11:17:57.965
84, -4.61, 178.98, 10.77, 8.58, 0.000, 0.000, 0.000, 11:17:57.965
85, -15.90, 179.42, 6.78, 6.15, 0.000, 0.000, 0.000, 11:17:57.980
86, 10.54, 195.92, 5.59, 9.14, 0.000, 0.000, 0.000, 11:17:57.980
87, 20.74, 196.16, 7.46, 7.08, 0.000, 0.000, 0.000, 11:17:57.995
88, -8.04, 181.09, 9.24, 11.00, 0.000, 0.000, 0.000, 11:17:57.995
89, -16.57, 179.37, 2.98, 4.85, 0.000, 0.000, 0.000, 11:17:57.995
90, 5.16, 198.40, 5.36, 7.79, 0.000, 0.000, 0.000, 11:17:57.995
91, 20.53, 202.03, 8.08, 8.78, 0.000, 0.000, 0.000, 11:17:58.010
92, -9.75, 183.08, 6.12, 6.17, 0.000, 0.000, 0.000, 11:17:58.010
93, -21.83, 182.24, 8.95, 8.97, 0.000, 0.000, 0.000, 11:17:58.025
94, 9.32, 199.27, 6.57, 6.75, 0.000, 0.000, 0.000, 11:17:58.025
95, 24.95, 201.10, 10.64, 7.81, 0.000, 0.000, 0.000, 11:17:58.025
96, -10.88, 179.84, 7.72, 12.58, 0.000, 0.000, 0.000, 11:17:58.026
97, -14.94, 179.84, 6.30, 7.89, 0.000, 0.000, 0.000, 11:17:58.040
98, 6.63, 197.12, 5.15, 6.59, 0.000, 0.000, 0.000, 11:17:58.040
99, 21.68, 202.90, 5.76, 5.97, 0.000, 0.000, 0.000, 11:17:58.055
100, -2.94, 184.67, 8.03, 8.39, 0.000, 0.000, 0.000, 11:17:58.055
101, -20.76, 182.17, 8.63, 7.67, 0.000, 0.000, 0.000, 11:17:58.055
102, 9.45, 200.84, 6.06, 9.96, 0.000, 0.000, 0.000, 11:17:58.055
103, 20.95, 201.94, 5.22, 6.90, 0.000, 0.000, 0.000, 11:17:58.069
104, -5.16, 189.15, 5.23, 9.82, 0.000, 0.000, 0.000, 11:17:58.070
105, -19.63, 180.17, 7.93, 8.87, 0.000, 0.000, 0.000, 11:17:58.085
106, 9.16, 199.27, 6.97, 7.52, 0.000, 0.000, 0.000, 11:17:58.085
107, 25.50, 204.15, 11.93, 8.46, 0.000, 0.000, 0.000, 11:17:58.085
108, -9.77, 187.29, 10.07, 10.35, 0.000, 0.000, 0.000, 11:17:58.086
109, -18.88, 185.28, 4.68, 4.07, 0.000, 0.000, 0.000, 11:17:58.106
110, 12.51, 203.29, 4.64, 5.65, 0.000, 0.000, 0.000, 11:17:58.106
111, 21.39, 205.25, 9.65, 5.62, 0.000, 0.000, 0.000, 11:17:58.115
112, -4.65, 187.22, 9.84, 7.45, 0.000, 0.000, 0.000, 11:17:58.115
113, -16.48, 185.84, 6.73, 5.14, 0.000, 0.000, 0.000, 11:17:58.115
114, 7.33, 203.89, 9.89, 6.79, 0.000, 0.000, 0.000, 11:17:58.115
115, 21.41, 205.25, 8.76, 7.16, 0.000, 0.000, 0.000, 11:17:58.130
116, -7.46, 187.79, 6.56, 5.61, 0.000, 0.000, 0.000, 11:17:58.131
117, -24.52, 182.12, 7.14, 5.44, 0.000, 0.000, 0.000, 11:17:58.145
118, 5.91, 198.71, 9.61, 4.49, 0.000, 0.000, 0.000, 11:17:58.145
119, 24.78, 203.65, 5.21, 7.76, 0.000, 0.000, 0.000, 11:17:58.145
120, -6.91, 186.02, 5.36, 8.97, 0.000, 0.000, 0.000, 11:17:58.145
121, -22.92, 182.33, 7.90, 5.44, 0.000, 0.000, 0.000, 11:17:58.160
122, 9.16, 197.55, 10.83, 7.14, 0.000, 0.000, 0.000, 11:17:58.160
123, 19.01, 197.67, 7.72, 10.35, 0.000, 0.000, 0.000, 11:17:58.175
124, -8.86, 182.67, 9.75, 7.47, 0.000, 0.000, 0.000, 11:17:58.175
125, -18.20, 174.75, 8.11, 5.87, 0.000, 0.000, 0.000, 11:17:58.175
126, 4.88, 192.36, 7.72, 10.59, 0.000, 0.000, 0.000, 11:17:58.176
127, 18.54, 196.26, 11.35, 6.26, 0.000, 0.000, 0.000, 11:17:58.190
128, -4.38, 178.93, 9.76, 8.78, 0.000, 0.000, 0.000, 11:17:58.190
129, -22.11, 178.27, 8.51, 4.18, 0.000, 0.000, 0.000, 11:17:58.204
130, 9.21, 196.69, 9.75, 4.73, 0.000, 0.000, 0.000, 11:17:58.205
131, 23.84, 205.22, 6.08, 7.04, 0.000, 0.000, 0.000, 11:17:58.206
132, -7.30, 183.72, 5.42, 8.15, 0.000, 0.000, 0.000, 11:17:58.206
133, -23.04, 183.52, 11.15, 7.54, 0.000, 0.000, 0.000, 11:17:58.221
134, 10.94, 201.65, 4.23, 4.73, 0.000, 0.000, 0.000, 11:17:58.221
135, 18.14, 203.16, 8.18, 7.96, 0.000, 0.000, 0.000, 11:17:58.234
136, -3.16, 186.10, 6.94, 9.18, 0.000, 0.000, 0.000, 11:17:58.235
137, -17.19, 177.88, 6.91, 8.88, 0.000, 0.000, 0.000, 11:17:58.235
138, 9.45, 199.14, 8.35, 5.00, 0.000, 0.000, 0.000, 11:17:58.235
139, 23.72, 204.35, 6.66, 6.27, 0.000, 0.000, 0.000, 11:17:58.250
140, -5.42, 183.14, 5.88, 5.34, 0.000, 0.000, 0.000, 11:17:58.250
141, -19.92, 178.99, 8.06, 7.31, 0.000, 0.000, 0.000, 11:17:58.264
142, 9.54, 199.12, 6.26, 9.84, 0.000, 0.000, 0.000, 11:17:58.264
143, 23.36, 205.06, 10.37, 10.05, 0.000, 0.000, 0.000, 11:17:58.265
144, -5.12, 186.02, 8.48, 9.48, 0.000, 0.000, 0.000, 11:17:58.265
145, -21.56, 179.21, 8.03, 6.25, 0.000, 0.000, 0.000, 11:17:58.280
146, 12.73, 195.64, 8.30, 9.01, 0.000, 0.000, 0.000, 11:17:58.280
147, 28.11, 201.85, 7.75, 5.65, 0.000, 0.000, 0.000, 11:17:58.295
148, -2.97, 182.80, 7.39, 7.34, 0.000, 0.000, 0.000, 11:17:58.295
149, -16.38, 177.86, 6.10, 5.93, 0.000, 0.000, 0.000, 11:17:58.296
150, 9.65, 196.20, 6.16, 6.10, 0.000, 0.000, 0.000, 11:17:58.296
151, 22.20, 200.03, 6.71, 5.62, 0.000, 0.000, 0.000, 11:17:58.310
152, -1.75, 180.87, 9.97, 11.30, 0.000, 0.000, 0.000, 11:17:58.310
153, -22.74, 181.02, 5.37, 5.31, 0.000, 0.000, 0.000, 11:17:58.325
154, 9.08, 198.03, 8.08, 3.96, 0.000, 0.000, 0.000, 11:17:58.326
155, 26.93, 201.61, 13.82, 7.82, 0.000, 0.000, 0.000, 11:17:58.326
156, -6.80, 181.11, 10.34, 9.74, 0.000, 0.000, 0.000, 11:17:58.326
157, -16.02, 177.88, 8.66, 7.42, 0.000, 0.000, 0.000, 11:17:58.340
158, 10.77, 196.58, 1.64, 6.81, 0.000, 0.000, 0.000, 11:17:58.340
159, 24.95, 200.38, 7.41, 9.30, 0.000, 0.000, 0.000, 11:17:58.354
160, -4.97, 181.77, 7.24, 6.22, 0.000, 0.000, 0.000, 11:17:58.355
161, -20.08, 179.58, 7.82, 7.12, 0.000, 0.000, 0.000, 11:17:58.355
162, 3.95, 197.41, 8.41, 7.16, 0.000, 0.000, 0.000, 11:17:58.355
163, 24.18, 202.60, 5.47, 6.58, 0.000, 0.000, 0.000, 11:17:58.369
164, -5.77, 185.53, 9.76, 5.38, 0.000, 0.000, 0.000, 11:17:58.369
165, -20.18, 180.84, 8.75, 3.71, 0.000, 0.000, 0.000, 11:17:58.385
166, 7.18, 199.56, 6.02, 6.87, 0.000, 0.000, 0.000, 11:17:58.385
167, 23.59, 205.31, 4.83, 7.65, 0.000, 0.000, 0.000, 11:17:58.385
168, -6.30, 185.67, 10.38, 9.04, 0.000, 0.000, 0.000, 11:17:58.385
169, -15.89, 182.59, 7.32, 1.70, 0.000, 0.000, 0.000, 11:17:58.399
170, 5.62, 198.78, 7.42, 8.54, 0.000, 0.000, 0.000, 11:17:58.399
171, 25.77, 198.02, 10.43, 9.55, 0.000, 0.000, 0.000, 11:17:58.415
172, -4.82, 179.51, 6.89, 7.99, 0.000, 0.000, 0.000, 11:17:58.415
173, -18.12, 179.60, 7.91, 11.14, 0.000, 0.000, 0.000, 11:17:58.415
174, 5.88, 193.73, 5.34, 5.79, 0.000, 0.000, 0.000, 11:17:58.415
175, 17.64, 201.56, 7.94, 8.49, 0.000, 0.000, 0.000, 11:17:58.430
176, -2.86, 182.78, 7.98, 8.74, 0.000, 0.000, 0.000, 11:17:58.430
177, -17.83, 177.24, 7.21, 7.21, 0.000, 0.000, 0.000, 11:17:58.445
178, 7.69, 194.48, 7.41, 3.95, 0.000, 0.000, 0.000, 11:17:58.445
179, 29.58, 203.33, 5.71, 11.39, 0.000, 0.000, 0.000, 11:17:58.446
180, -3.14, 180.90, 6.78, 6.05, 0.000, 0.000, 0.000, 11:17:58.446
181, -19.34, 175.95, 4.89, 7.20, 0.000, 0.000, 0.000, 11:17:58.460
182, 7.00, 195.57, 7.48, 6.56, 0.000, 0.000, 0.000, 11:17:58.461
183, 24.89, 201.23, 4.52, 10.20, 0.000, 0.000, 0.000, 11:17:58.474
184, -6.45, 181.40, 8.92, 9.23, 0.000, 0.000, 0.000, 11:17:58.474
185, -20.75, 178.02, 7.74, 11.15, 0.000, 0.000, 0.000, 11:17:58.475
186, 8.49, 195.58, 9.91, 7.48, 0.000, 0.000, 0.000, 11:17:58.475
187, 27.55, 201.81, 8.63, 5.78, 0.000, 0.000, 0.000, 11:17:58.490
188, -2.59, 186.44, 9.16, 4.52, 0.000, 0.000, 0.000, 11:17:58.490
189, -18.71, 177.60, 5.56, 4.60, 0.000, 0.000, 0.000, 11:17:58.505
190, 8.13, 200.31, 4.10, 6.50, 0.000, 0.000, 0.000, 11:17:58.505
191, 26.22, 204.64, 5.57, 11.06, 0.000, 0.000, 0.000, 11:17:58.505
192, -6.17, 183.88, 7.33, 5.88, 0.000, 0.000, 0.000, 11:17:58.505
193, -19.31, 179.46, 8.07, 2.68, 0.000, 0.000, 0.000, 11:17:58.535
194, 10.71, 199.44, 3.51, 10.11, 0.000, 0.000, 0.000, 11:17:58.535
195, 29.66, 205.67, 11.34, 7.17, 0.000, 0.000, 0.000, 11:17:58.535
196, -4.61, 185.47, 8.67, 9.03, 0.000, 0.000, 0.000, 11:17:58.535
197, -15.19, 178.68, 9.37, 6.13, 0.000, 0.000, 0.000, 11:17:58.536
198, 7.71, 193.46, 5.63, 0.59, 0.000, 0.000, 0.000, 11:17:58.536
199, 24.20, 202.27, 6.66, 7.37, 0.000, 0.000, 0.000, 11:17:58.550
200, -1.75, 187.19, 6.98, 9.93, 0.000, 0.000, 0.000, 11:17:58.550
0, -16.25, 181.14, 7.89, 6.03, 0.000, 0.000, 0.000, 11:17:58.551
1, 5.71, 196.36, 0.30, 3.42, 0.000, 0.000, 0.000, 11:17:58.571
2, 28.25, 204.69, 4.90, 8.07, 0.000, 0.000, 0.000, 11:17:58.572
3, -3.09, 185.01, 7.81, 7.05, 0.000, 0.000, 0.000, 11:17:58.580
4, -18.88, 181.17, 6.14, 5.60, 0.000, 0.000, 0.000, 11:17:58.580
5, 7.40, 198.10, 5.26, 6.44, 0.000, 0.000, 0.000, 11:17:58.580
6, 24.95, 199.85, 10.32, 7.46, 0.000, 0.000, 0.000, 11:17:58.580
7, -0.05, 191.68, 8.40, 5.68, 0.000, 0.000, 0.000, 11:17:58.595
8, -15.70, 184.30, 4.28, 10.54, 0.000, 0.000, 0.000, 11:17:58.595
9, 10.09, 198.57, 4.05, 6.73, 0.000, 0.000, 0.000, 11:17:58.610
10, 20.05, 207.24, 8.58, 7.26, 0.000, 0.000, 0.000, 11:17:58.610
11, -1.53, 187.30, 7.93, 7.86, 0.000, 0.000, 0.000, 11:17:58.610
12, -16.49, 181.14, 3.77, 8.57, 0.000, 0.000, 0.000, 11:17:58.611
13, 5.20, 197.35, 8.40, 5.34, 0.000, 0.000, 0.000, 11:17:58.624
14, 26.73, 201.65, 6.22, 7.03, 0.000, 0.000, 0.000, 11:17:58.625
15, -6.20, 181.80, 11.60, 10.91, 0.000, 0.000, 0.000, 11:17:58.640
16, -19.07, 175.43, 6.74, 13.44, 0.000, 0.000, 0.000, 11:17:58.640
17, 6.22, 194.19, 4.64, 8.29, 0.000, 0.000, 0.000, 11:17:58.640
18, 24.56, 203.00, 11.90, 8.14, 0.000, 0.000, 0.000, 11:17:58.640
19, -3.52, 185.57, 7.65, 8.86, 0.000, 0.000, 0.000, 11:17:58.655
20, -15.82, 177.69, 5.53, 5.35, 0.000, 0.000, 0.000, 11:17:58.655
21, 5.32, 196.86, 12.00, 9.13, 0.000, 0.000, 0.000, 11:17:58.669
22, 26.27, 201.93, 7.52, 9.07, 0.000, 0.000, 0.000, 11:17:58.669
23, -5.13, 184.93, 7.11, 10.09, 0.000, 0.000, 0.000, 11:17:58.671
24, -19.16, 178.34, 8.04, 8.49, 0.000, 0.000, 0.000, 11:17:58.671
25, 8.61, 195.08, 7.28, 4.30, 0.000, 0.000, 0.000, 11:17:58.685
26, 24.11, 198.36, 6.20, 7.35, 0.000, 0.000, 0.000, 11:17:58.685
27, -2.21, 177.48, 6.68, 7.01, 0.000, 0.000, 0.000, 11:17:58.699
28, -25.45, 172.92, 5.28, 10.76, 0.000, 0.000, 0.000, 11:17:58.700
29, 7.21, 191.23, 8.23, 3.90, 0.000, 0.000, 0.000, 11:17:58.700
30, 25.26, 202.55, 2.39, 8.09, 0.000, 0.000, 0.000, 11:17:58.700
31, -5.24, 179.45, 9.43, 9.96, 0.000, 0.000, 0.000, 11:17:58.715
32, -13.08, 174.77, 7.19, 8.28, 0.000, 0.000, 0.000, 11:17:58.715
33, 4.03, 191.82, 4.10, 5.54, 0.000, 0.000, 0.000, 11:17:58.730
34, 19.94, 199.17, 6.36, 4.47, 0.000, 0.000, 0.000, 11:17:58.731
35, -1.73, 185.13, 7.44, 10.87, 0.000, 0.000, 0.000, 11:17:58.731
36, -15.89, 176.66, 6.10, 10.66, 0.000, 0.000, 0.000, 11:17:58.731
37, 5.29, 192.52, 4.35, 5.89, 0.000, 0.000, 0.000, 11:17:58.745
38, 26.57, 202.29, 5.65, 11.90, 0.000, 0.000, 0.000, 11:17:58.745
39, -2.86, 184.02, 7.52, 7.55, 0.000, 0.000, 0.000, 11:17:58.760
40, -21.85, 179.72, 2.61, 6.48, 0.000, 0.000, 0.000, 11:17:58.760
41, 4.36, 194.85, 3.93, 9.82, 0.000, 0.000, 0.000, 11:17:58.760
42, 22.59, 202.41, 6.16, 7.75, 0.000, 0.000, 0.000, 11:17:58.760
43, -2.15, 180.75, 7.63, 9.61, 0.000, 0.000, 0.000, 11:17:58.775
44, -17.49, 177.00, 6.85, 9.07, 0.000, 0.000, 0.000, 11:17:58.775
45, 9.61, 190.17, 7.77, 7.99, 0.000, 0.000, 0.000, 11:17:58.789
46, 24.92, 200.38, 8.74, 7.63, 0.000, 0.000, 0.000, 11:17:58.789
47, -4.45, 184.68, 4.44, 4.42, 0.000, 0.000, 0.000, 11:17:58.789
48, -23.72, 173.58, 6.94, 8.10, 0.000, 0.000, 0.000, 11:17:58.790
49, 7.73, 192.52, 3.73, 8.12, 0.000, 0.000, 0.000, 11:17:58.804
50, 25.99, 199.63, 3.94, 4.17, 0.000, 0.000, 0.000, 11:17:58.804
51, -4.82, 180.35, 10.34, 6.66, 0.000, 0.000, 0.000, 11:17:58.820
52, -20.92, 172.22, 4.62, 5.79, 0.000, 0.000, 0.000, 11:17:58.820
53, 4.47, 193.26, 7.16, 5.54, 0.000, 0.000, 0.000, 11:17:58.821
54, 22.93, 200.22, 8.13, 12.70, 0.000, 0.000, 0.000, 11:17:58.821
55, -4.70, 182.71, 8.91, 10.98, 0.000, 0.000, 0.000, 11:17:58.835
56, -15.34, 172.64, 9.96, 7.26, 0.000, 0.000, 0.000, 11:17:58.835
57, 5.06, 188.86, 5.59, 4.60, 0.000, 0.000, 0.000, 11:17:58.850
58, 24.28, 199.36, 5.12, 8.26, 0.000, 0.000, 0.000, 11:17:58.850
59, -5.65, 181.62, 9.29, 10.19, 0.000, 0.000, 0.000, 11:17:58.851
60, -20.31, 172.80, 12.92, 10.03, 0.000, 0.000, 0.000, 11:17:58.851
61, 8.27, 192.32, 9.80, 5.63, 0.000, 0.000, 0.000, 11:17:58.865
62, 26.16, 202.80, 7.13, 8.16, 0.000, 0.000, 0.000, 11:17:58.865
63, -0.91, 182.85, 9.32, 7.99, 0.000, 0.000, 0.000, 11:17:58.880
64, -22.25, 178.35, 13.13, 5.00, 0.000, 0.000, 0.000, 11:17:58.880
65, 6.11, 196.91, 7.65, 9.24, 0.000, 0.000, 0.000, 11:17:58.880
66, 22.15, 202.07, 11.43, 6.14, 0.000, 0.000, 0.000, 11:17:58.880
67, -3.13, 183.70, 8.59, 11.50, 0.000, 0.000, 0.000, 11:17:58.895
68, -19.08, 180.65, 10.13, 8.13, 0.000, 0.000, 0.000, 11:17:58.895
69, 2.07, 191.14, 7.07, 11.47, 0.000, 0.000, 0.000, 11:17:58.910
70, 28.94, 197.74, 6.26, 8.00, 0.000, 0.000, 0.000, 11:17:58.910
71, -1.30, 182.77, 9.38, 10.33, 0.000, 0.000, 0.000, 11:17:58.910
72, -20.83, 178.87, 7.15, 4.99, 0.000, 0.000, 0.000, 11:17:58.910
73, 6.33, 196.70, 7.07, 5.98, 0.000, 0.000, 0.000, 11:17:58.924
74, 28.82, 206.08, 5.47, 7.04, 0.000, 0.000, 0.000, 11:17:58.925
75, -2.35, 183.89, 8.32, 8.24, 0.000, 0.000, 0.000, 11:17:58.940
76, -18.37, 176.35, 7.45, 4.99, 0.000, 0.000, 0.000, 11:17:58.940
77, 5.53, 196.91, 8.47, 6.43, 0.000, 0.000, 0.000, 11:17:58.940
78, 24.63, 201.77, 8.73, 4.97, 0.000, 0.000, 0.000, 11:17:58.940
79, -0.83, 182.36, 9.56, 6.87, 0.000, 0.000, 0.000, 11:17:58.955
80, -18.77, 174.41, 7.91, 7.23, 0.000, 0.000, 0.000, 11:17:58.955
81, 4.79, 191.77, 8.94, 7.92, 0.000, 0.000, 0.000, 11:17:58.970
82, 24.44, 201.03, 8.75, 9.90, 0.000, 0.000, 0.000, 11:17:58.970
83, -3.33, 182.26, 7.38, 4.96, 0.000, 0.000, 0.000, 11:17:58.978
84, -19.22, 175.29, 5.33, 9.72, 0.000, 0.000, 0.000, 11:17:58.978
85, 2.31, 192.92, 8.22, 7.06, 0.000, 0.000, 0.000, 11:17:59.000
86, 27.02, 196.91, 9.39, 4.70, 0.000, 0.000, 0.000, 11:17:59.000
87, -4.51, 177.36, 10.39, 11.61, 0.000, 0.000, 0.000, 11:17:59.000
88, -22.19, 171.08, 4.42, 8.61, 0.000, 0.000, 0.000, 11:17:59.000
89, 4.58, 189.67, 5.51, 3.87, 0.000, 0.000, 0.000, 11:17:59.001
90, 24.36, 195.09, 8.55, 4.20, 0.000, 0.000, 0.000, 11:17:59.001
91, -3.61, 179.31, 13.73, 3.03, 0.000, 0.000, 0.000, 11:17:59.014
92, -18.51, 170.73, 9.58, 5.62, 0.000, 0.000, 0.000, 11:17:59.015
93, 2.43, 187.16, 6.42, 8.41, 0.000, 0.000, 0.000, 11:17:59.030
94, 26.45, 196.07, 9.21, 7.70, 0.000, 0.000, 0.000, 11:17:59.030
95, 1.81, 176.72, 10.60, 11.34, 0.000, 0.000, 0.000, 11:17:59.030
96, -19.90, 170.79, 7.81, 7.94, 0.000, 0.000, 0.000, 11:17:59.030
97, 6.61, 187.26, 12.57, 8.22, 0.000, 0.000, 0.000, 11:17:59.045
98, 29.67, 194.97, 10.65, 6.89, 0.000, 0.000, 0.000, 11:17:59.045
99, -5.42, 179.86, 13.26, 6.45, 0.000, 0.000, 0.000, 11:17:59.060
100, -18.59, 173.07, 7.25, 7.67, 0.000, 0.000, 0.000, 11:17:59.060
101, 6.88, 188.62, 7.11, 6.42, 0.000, 0.000, 0.000, 11:17:59.060
102, 35.13, 194.24, 7.53, 9.54, 0.000, 0.000, 0.000, 11:17:59.060
103, 0.18, 176.74, 10.44, 7.66, 0.000, 0.000, 0.000, 11:17:59.075
104, -16.50, 172.49, 7.51, 6.65, 0.000, 0.000, 0.000, 11:17:59.075
105, 7.23, 188.13, 9.55, 6.34, 0.000, 0.000, 0.000, 11:17:59.090
106, 23.57, 194.11, 7.73, 5.88, 0.000, 0.000, 0.000, 11:17:59.090
107, -1.42, 179.57, 9.91, 8.24, 0.000, 0.000, 0.000, 11:17:59.091
108, -16.83, 172.59, 2.83, 7.81, 0.000, 0.000, 0.000, 11:17:59.091
109, 2.60, 184.40, 3.81, 9.01, 0.000, 0.000, 0.000, 11:17:59.104
110, 25.26, 196.92, 6.23, 7.12, 0.000, 0.000, 0.000, 11:17:59.105
111, 0.99, 178.80, 11.00, 7.53, 0.000, 0.000, 0.000, 11:17:59.120
112, -23.12, 171.93, 8.58, 6.24, 0.000, 0.000, 0.000, 11:17:59.120
113, 6.95, 187.86, 8.12, 8.31, 0.000, 0.000, 0.000, 11:17:59.120
114, 21.19, 195.69, 6.15, 6.51, 0.000, 0.000, 0.000, 11:17:59.120
115, -3.45, 177.87, 11.48, 5.87, 0.000, 0.000, 0.000, 11:17:59.135
116, -18.29, 173.11, 9.77, 7.10, 0.000, 0.000, 0.000, 11:17:59.135
117, 4.28, 185.99, 1.77, 5.61, 0.000, 0.000, 0.000, 11:17:59.150
118, 24.70, 193.37, 8.58, 5.85, 0.000, 0.000, 0.000, 11:17:59.150
119, -0.28, 175.66, 9.50, 10.71, 0.000, 0.000, 0.000, 11:17:59.150
120, -22.92, 168.11, 5.49, 11.24, 0.000, 0.000, 0.000, 11:17:59.150
121, 2.94, 185.49, 7.48, 3.19, 0.000, 0.000, 0.000, 11:17:59.165
122, 29.39, 192.89, 8.32, 5.56, 0.000, 0.000, 0.000, 11:17:59.165
123, -5.18, 178.53, 7.20, 2.25, 0.000, 0.000, 0.000, 11:17:59.180
124, -24.86, 168.71, 9.03, 7.39, 0.000, 0.000, 0.000, 11:17:59.180
125, 1.77, 184.17, 6.15, 5.15, 0.000, 0.000, 0.000, 11:17:59.181
126, 20.34, 193.06, 4.88, 9.60, 0.000, 0.000, 0.000, 11:17:59.181
127, -1.31, 176.59, 7.28, 6.20, 0.000, 0.000, 0.000, 11:17:59.195
128, -18.28, 165.52, 4.65, 7.65, 0.000, 0.000, 0.000, 11:17:59.195
129, 0.71, 182.89, 7.54, 8.19, 0.000, 0.000, 0.000, 11:17:59.210
130, 24.14, 194.32, 6.22, 1.94, 0.000, 0.000, 0.000, 11:17:59.210
131, -6.82, 175.67, 11.21, 10.20, 0.000, 0.000, 0.000, 11:17:59.210
132, -23.79, 169.40, 7.53, 6.48, 0.000, 0.000, 0.000, 11:17:59.210
133, 3.24, 183.67, 8.46, 7.53, 0.000, 0.000, 0.000, 11:17:59.225
134, 20.85, 196.00, 7.63, 1.62, 0.000, 0.000, 0.000, 11:17:59.225
135, -1.31, 177.52, 6.75, 14.34, 0.000, 0.000, 0.000, 11:17:59.239
136, -25.21, 168.64, 4.30, 6.08, 0.000, 0.000, 0.000, 11:17:59.239
137, 4.88, 185.13, 7.92, 5.52, 0.000, 0.000, 0.000, 11:17:59.247
138, 20.03, 193.40, 10.16, 11.97, 0.000, 0.000, 0.000, 11:17:59.247
139, -0.90, 176.83, 8.87, 3.70, 0.000, 0.000, 0.000, 11:17:59.254
140, -20.21, 167.54, 3.85, 7.58, 0.000, 0.000, 0.000, 11:17:59.254
141, 3.55, 186.40, 6.20, 4.39, 0.000, 0.000, 0.000, 11:17:59.270
142, 17.09, 195.73, 7.33, 7.71, 0.000, 0.000, 0.000, 11:17:59.270
143, -3.56, 183.10, 7.15, 7.58, 0.000, 0.000, 0.000, 11:17:59.270
144, -18.67, 171.86, 5.59, 6.05, 0.000, 0.000, 0.000, 11:17:59.270
145, 2.77, 188.71, 6.23, 6.58, 0.000, 0.000, 0.000, 11:17:59.285
146, 23.59, 199.81, 13.18, 7.17, 0.000, 0.000, 0.000, 11:17:59.285
147, -1.88, 181.61, 5.68, 9.44, 0.000, 0.000, 0.000, 11:17:59.300
148, -23.68, 174.40, 6.37, 10.22, 0.000, 0.000, 0.000, 11:17:59.301
149, 1.21, 186.32, 9.86, 8.28, 0.000, 0.000, 0.000, 11:17:59.301
150, 25.22, 197.63, 5.52, 11.37, 0.000, 0.000, 0.000, 11:17:59.301
151, -0.36, 177.68, 6.34, 11.72, 0.000, 0.000, 0.000, 11:17:59.315
152, -20.97, 171.69, 10.77, 7.65, 0.000, 0.000, 0.000, 11:17:59.315
153, 2.86, 189.13, 3.94, 3.72, 0.000, 0.000, 0.000, 11:17:59.330
154, 23.58, 194.17, 7.62, 5.19, 0.000, 0.000, 0.000, 11:17:59.330
155, -3.10, 180.74, 7.14, 5.42, 0.000, 0.000, 0.000, 11:17:59.331
156, -23.84, 173.69, 6.25, 7.92, 0.000, 0.000, 0.000, 11:17:59.331
157, 0.20, 189.61, 4.68, 7.64, 0.000, 0.000, 0.000, 11:17:59.345
158, 20.87, 197.07, 7.23, 2.60, 0.000, 0.000, 0.000, 11:17:59.345
159, -3.03, 182.10, 5.07, 10.23, 0.000, 0.000, 0.000, 11:17:59.360
160, -25.54, 172.58, 5.20, 5.39, 0.000, 0.000, 0.000, 11:17:59.360
161, 2.47, 190.84, 5.34, 4.15, 0.000, 0.000, 0.000, 11:17:59.360
162, 17.14, 198.80, 4.26, 8.61, 0.000, 0.000, 0.000, 11:17:59.361
163, -1.85, 183.77, 7.07, 7.08, 0.000, 0.000, 0.000, 11:17:59.375
164, -19.45, 175.38, 10.10, 13.88, 0.000, 0.000, 0.000, 11:17:59.375
165, 3.62, 191.51, 6.84, 8.42, 0.000, 0.000, 0.000, 11:17:59.390
166, 21.13, 199.13, 10.17, 8.58, 0.000, 0.000, 0.000, 11:17:59.390
167, -0.02, 183.57, 3.53, 5.69, 0.000, 0.000, 0.000, 11:17:59.390
168, -24.35, 173.14, 7.51, 5.50, 0.000, 0.000, 0.000, 11:17:59.390
169, 2.66, 190.65, 9.35, 5.54, 0.000, 0.000, 0.000, 11:17:59.405
170, 22.41, 202.57, 12.27, 9.88, 0.000, 0.000, 0.000, 11:17:59.405
171, -0.91, 180.89, 4.35, 4.83, 0.000, 0.000, 0.000, 11:17:59.420
172, -25.57, 171.95, 9.75, 6.69, 0.000, 0.000, 0.000, 11:17:59.420
173, -0.74, 188.50, 10.02, 5.74, 0.000, 0.000, 0.000, 11:17:59.421
174, 23.91, 198.37, 8.89, 5.51, 0.000, 0.000, 0.000, 11:17:59.421
175, -3.22, 184.42, 4.66, 8.21, 0.000, 0.000, 0.000, 11:17:59.435
176, -16.85, 175.54, 6.83, 4.12, 0.000, 0.000, 0.000, 11:17:59.435
177, 4.95, 187.67, 8.19, 11.60, 0.000, 0.000, 0.000, 11:17:59.449
178, 22.36, 196.05, 7.26, 5.86, 0.000, 0.000, 0.000, 11:17:59.450
179, -0.16, 184.66, 5.49, 10.94, 0.000, 0.000, 0.000, 11:17:59.450
180, -17.14, 173.30, 7.40, 8.97, 0.000, 0.000, 0.000, 11:17:59.450
181, 2.49, 192.11, 9.26, 6.33, 0.000, 0.000, 0.000, 11:17:59.466
182, 30.48, 203.20, 8.27, 11.17, 0.000, 0.000, 0.000, 11:17:59.466
183, -1.77, 181.32, 12.83, 9.74, 0.000, 0.000, 0.000, 11:17:59.481
184, -19.56, 173.91, 6.34, 9.42, 0.000, 0.000, 0.000, 11:17:59.481
185, 2.26, 193.41, 7.56, 6.40, 0.000, 0.000, 0.000, 11:17:59.482
186, 22.69, 198.19, 4.93, 7.17, 0.000, 0.000, 0.000, 11:17:59.482
187, 3.36, 184.37, 8.15, 10.98, 0.000, 0.000, 0.000, 11:17:59.495
188, -15.97, 173.43, 5.81, 5.86, 0.000, 0.000, 0.000, 11:17:59.495
189, 6.21, 187.96, 3.75, 8.79, 0.000, 0.000, 0.000, 11:17:59.510
190, 21.05, 196.69, 8.70, 9.59, 0.000, 0.000, 0.000, 11:17:59.510
191, 1.95, 182.73, 10.73, 8.81, 0.000, 0.000, 0.000, 11:17:59.511
192, -18.16, 172.70, 8.64, 9.59, 0.000, 0.000, 0.000, 11:17:59.511
193, 4.93, 186.05, 4.68, 9.04, 0.000, 0.000, 0.000, 11:17:59.525
194, 26.36, 199.66, 8.45, 7.49, 0.000, 0.000, 0.000, 11:17:59.525
195, -4.50, 178.84, 7.39, 4.10, 0.000, 0.000, 0.000, 11:17:59.540
196, -22.69, 168.04, 7.47, 2.81, 0.000, 0.000, 0.000, 11:17:59.540
197, 2.68, 189.53, 8.38, 7.14, 0.000, 0.000, 0.000, 11:17:59.541
198, 24.74, 199.04, 9.68, 7.92, 0.000, 0.000, 0.000, 11:17:59.541
199, 1.87, 185.06, 5.40, 9.04, 0.000, 0.000, 0.000, 11:17:59.554
200, -18.33, 171.64, 8.85, 8.42, 0.000, 0.000, 0.000, 11:17:59.554
0, 7.21, 189.84, 8.56, 6.70, 0.000, 0.000, 0.000, 11:17:59.555
1, 25.63, 199.05, 6.21, 7.64, 0.000, 0.000, 0.000, 11:17:59.569
2, 4.01, 182.21, 5.01, 8.95, 0.000, 0.000, 0.000, 11:17:59.569
3, -20.00, 173.46, 9.72, 11.16, 0.000, 0.000, 0.000, 11:17:59.585
4, 4.92, 190.56, 10.08, 8.19, 0.000, 0.000, 0.000, 11:17:59.585
5, 27.57, 197.86, 10.40, 8.55, 0.000, 0.000, 0.000, 11:17:59.585
6, 0.91, 179.92, 5.49, 7.44, 0.000, 0.000, 0.000, 11:17:59.585
7, -18.11, 169.52, 7.62, 10.90, 0.000, 0.000, 0.000, 11:17:59.600
8, 7.13, 189.04, 5.29, 10.85, 0.000, 0.000, 0.000, 11:17:59.600
9, 29.82, 196.39, 4.63, 7.81, 0.000, 0.000, 0.000, 11:17:59.615
10, 1.45, 179.65, 7.62, 8.28, 0.000, 0.000, 0.000, 11:17:59.615
11, -21.46, 172.21, 8.26, 5.73, 0.000, 0.000, 0.000, 11:17:59.615
12, 3.24, 186.21, 6.91, 7.12, 0.000, 0.000, 0.000, 11:17:59.615
13, 27.50, 193.29, 6.00, 6.10, 0.000, 0.000, 0.000, 11:17:59.630
14, 2.16, 175.80, 4.04, 7.26, 0.000, 0.000, 0.000, 11:17:59.630
15, -17.82, 171.17, 8.98, 6.21, 0.000, 0.000, 0.000, 11:17:59.645
16, -0.91, 187.19, 3.47, 9.57, 0.000, 0.000, 0.000, 11:17:59.645
17, 25.67, 197.59, 6.67, 8.40, 0.000, 0.000, 0.000, 11:17:59.645
18, 0.80, 179.42, 8.35, 5.19, 0.000, 0.000, 0.000, 11:17:59.646
19, -20.78, 171.51, 9.92, 8.09, 0.000, 0.000, 0.000, 11:17:59.660
20, 5.88, 184.01, 4.38, 6.19, 0.000, 0.000, 0.000, 11:17:59.660
21, 26.75, 194.35, 2.16, 5.86, 0.000, 0.000, 0.000, 11:17:59.675
22, 1.55, 174.49, 6.28, 5.64, 0.000, 0.000, 0.000, 11:17:59.675
23, -18.43, 167.70, 5.21, 6.81, 0.000, 0.000, 0.000, 11:17:59.675
24, 8.07, 188.26, 4.51, 6.52, 0.000, 0.000, 0.000, 11:17:59.675
25, 24.80, 194.25, 6.54, 10.19, 0.000, 0.000, 0.000, 11:17:59.689
26, 0.06, 180.50, 7.01, 4.99, 0.000, 0.000, 0.000, 11:17:59.690
27, -18.17, 167.73, 9.91, 9.33, 0.000, 0.000, 0.000, 11:17:59.704
28, 2.91, 185.20, 7.37, 7.71, 0.000, 0.000, 0.000, 11:17:59.704
29, 24.94, 196.34, 4.56, 9.08, 0.000, 0.000, 0.000, 11:17:59.705
30, 2.15, 179.59, 7.55, 12.59, 0.000, 0.000, 0.000, 11:17:59.705
31, -17.95, 168.18, 11.00, 9.91, 0.000, 0.000, 0.000, 11:17:59.720
32, -0.13, 184.91, 6.40, 9.10, 0.000, 0.000, 0.000, 11:17:59.720
33, 32.19, 194.55, 7.51, 8.15, 0.000, 0.000, 0.000, 11:17:59.735
34, 3.23, 178.93, 1.56, 4.27, 0.000, 0.000, 0.000, 11:17:59.736
35, -14.89, 170.06, 11.37, 4.11, 0.000, 0.000, 0.000, 11:17:59.736
36, 5.17, 183.66, 6.14, 4.06, 0.000, 0.000, 0.000, 11:17:59.736
37, 26.93, 196.80, 5.12, 8.14, 0.000, 0.000, 0.000, 11:17:59.750
38, 7.34, 180.62, 8.24, 10.14, 0.000, 0.000, 0.000, 11:17:59.750
39, -20.91, 169.19, 9.91, 7.76, 0.000, 0.000, 0.000, 11:17:59.765
40, 2.65, 184.02, 5.61, 8.18, 0.000, 0.000, 0.000, 11:17:59.765
41, 23.38, 191.33, 8.39, 7.25, 0.000, 0.000, 0.000, 11:17:59.766
42, -0.72, 177.08, 11.71, 11.22, 0.000, 0.000, 0.000, 11:17:59.766
43, -23.98, 167.86, 11.05, 8.19, 0.000, 0.000, 0.000, 11:17:59.780
44, 3.18, 184.28, 7.84, 7.94, 0.000, 0.000, 0.000, 11:17:59.780
45, 25.26, 192.82, 9.79, 7.38, 0.000, 0.000, 0.000, 11:17:59.795
46, 1.91, 177.49, 7.01, 7.16, 0.000, 0.000, 0.000, 11:17:59.795
47, -20.05, 165.30, 7.88, 7.09, 0.000, 0.000, 0.000, 11:17:59.795
48, 2.47, 184.18, 3.36, 6.54, 0.000, 0.000, 0.000, 11:17:59.795
49, 25.03, 192.27, 5.42, 5.76, 0.000, 0.000, 0.000, 11:17:59.810
50, 0.95, 175.75, 8.41, 5.71, 0.000, 0.000, 0.000, 11:17:59.810
51, -24.06, 165.08, 10.40, 8.21, 0.000, 0.000, 0.000, 11:17:59.826
52, 1.82, 181.55, 5.87, 10.71, 0.000, 0.000, 0.000, 11:17:59.826
53, 23.74, 193.18, 4.01, 12.15, 0.000, 0.000, 0.000, 11:17:59.826
54, 2.28, 175.90, 7.83, 9.17, 0.000, 0.000, 0.000, 11:17:59.826
55, -19.08, 168.50, 8.76, 6.53, 0.000, 0.000, 0.000, 11:17:59.839
56, 0.77, 183.66, 10.52, 8.46, 0.000, 0.000, 0.000, 11:17:59.840
57, 24.95, 192.89, 9.63, 7.70, 0.000, 0.000, 0.000, 11:17:59.855
58, 1.84, 182.11, 8.41, 6.28, 0.000, 0.000, 0.000, 11:17:59.855
59, -23.95, 172.97, 6.59, 7.23, 0.000, 0.000, 0.000, 11:17:59.855
60, 4.97, 190.90, 8.03, 2.05, 0.000, 0.000, 0.000, 11:17:59.856
61, 19.55, 195.05, 6.07, 2.82, 0.000, 0.000, 0.000, 11:17:59.870
62, -1.60, 183.48, 8.07, 6.98, 0.000, 0.000, 0.000, 11:17:59.870
63, -19.96, 174.73, 4.89, 9.63, 0.000, 0.000, 0.000, 11:17:59.885
64, 1.16, 189.69, 2.57, 6.10, 0.000, 0.000, 0.000, 11:17:59.885
65, 25.07, 199.15, 8.94, 6.81, 0.000, 0.000, 0.000, 11:17:59.900
66, 2.30, 180.81, 10.63, 5.68, 0.000, 0.000, 0.000, 11:17:59.900
67, -21.21, 172.93, 3.98, 9.59, 0.000, 0.000, 0.000, 11:17:59.901
68, 2.14, 187.59, 4.68, 6.85, 0.000, 0.000, 0.000, 11:17:59.901
69, 20.62, 196.20, 8.95, 7.28, 0.000, 0.000, 0.000, 11:17:59.915
70, -1.85, 183.33, 10.33, 6.28, 0.000, 0.000, 0.000, 11:17:59.915
71, -16.74, 175.74, 7.83, 4.41, 0.000, 0.000, 0.000, 11:17:59.916
72, -0.73, 185.99, 3.98, 11.90, 0.000, 0.000, 0.000, 11:17:59.916
73, 24.80, 196.62, 6.50, 4.81, 0.000, 0.000, 0.000, 11:17:59.929
74, -0.04, 182.43, 6.94, 7.61, 0.000, 0.000, 0.000, 11:17:59.929
75, -24.40, 175.80, 6.63, 9.07, 0.000, 0.000, 0.000, 11:17:59.946
76, 0.86, 186.83, 3.81, 11.15, 0.000, 0.000, 0.000, 11:17:59.946
77, 21.90, 201.33, 7.22, 8.64, 0.000, 0.000, 0.000, 11:17:59.946
78, -2.02, 177.46, 7.73, 8.02, 0.000, 0.000, 0.000, 11:17:59.946
79, -23.24, 170.38, 8.40, 5.37, 0.000, 0.000, 0.000, 11:17:59.960
80, 3.04, 185.92, 6.37, 8.21, 0.000, 0.000, 0.000, 11:17:59.961
81, 21.28, 196.21, 7.95, 9.76, 0.000, 0.000, 0.000, 11:17:59.975
82, 2.87, 181.25, 4.54, 8.80, 0.000, 0.000, 0.000, 11:17:59.975
83, -18.64, 172.52, 8.20, 12.45, 0.000, 0.000, 0.000, 11:17:59.975
84, 0.01, 185.98, 7.99, 8.27, 0.000, 0.000, 0.000, 11:17:59.975
85, 27.39, 199.07, 9.36, 9.46, 0.000, 0.000, 0.000, 11:17:59.990
86, 6.75, 183.40, 2.95, 9.81, 0.000, 0.000, 0.000, 11:17:59.990
87, -22.60, 171.73, 9.46, 11.47, 0.000, 0.000, 0.000, 11:18:00.005
88, -1.82, 183.06, 7.51, 5.93, 0.000, 0.000, 0.000, 11:18:00.005
89, 25.06, 194.11, 6.29, 8.49, 0.000, 0.000, 0.000, 11:18:00.006
90, -0.93, 179.54, 7.66, 9.45, 0.000, 0.000, 0.000, 11:18:00.006
91, -22.74, 167.37, 10.24, 7.22, 0.000, 0.000, 0.000, 11:18:00.020
92, 1.97, 181.62, 11.27, 6.23, 0.000, 0.000, 0.000, 11:18:00.020
93, 22.75, 196.56, 8.81, 8.68, 0.000, 0.000, 0.000, 11:18:00.035
94, 0.54, 181.41, 8.54, 7.76, 0.000, 0.000, 0.000, 11:18:00.035
95, -16.92, 173.30, 9.94, 6.99, 0.000, 0.000, 0.000, 11:18:00.035
96, 2.68, 184.96, 8.88, 3.43, 0.000, 0.000, 0.000, 11:18:00.035
97, 24.36, 199.20, 8.02, 6.30, 0.000, 0.000, 0.000, 11:18:00.065
98, 4.25, 177.39, 7.13, 9.14, 0.000, 0.000, 0.000, 11:18:00.065
99, -22.50, 167.85, 8.44, 5.46, 0.000, 0.000, 0.000, 11:18:00.065
100, 4.95, 185.49, 5.59, 9.04, 0.000, 0.000, 0.000, 11:18:00.065
101, 23.65, 195.43, 9.21, 7.48, 0.000, 0.000, 0.000, 11:18:00.066
102, 3.80, 180.01, 5.69, 8.05, 0.000, 0.000, 0.000, 11:18:00.066
103, -19.48, 170.44, 13.14, 10.39, 0.000, 0.000, 0.000, 11:18:00.080
104, 2.58, 184.85, 10.23, 6.53, 0.000, 0.000, 0.000, 11:18:00.080
105, 23.33, 196.83, 9.95, 0.18, 0.000, 0.000, 0.000, 11:18:00.095
106, 2.12, 181.61, 12.25, 8.08, 0.000, 0.000, 0.000, 11:18:00.095
107, -18.87, 170.90, 9.16, 2.49, 0.000, 0.000, 0.000, 11:18:00.109
108, 5.25, 185.97, 9.42, 7.52, 0.000, 0.000, 0.000, 11:18:00.109
109, 24.28, 195.51, 7.29, 10.88, 0.000, 0.000, 0.000, 11:18:00.110
110, 5.63, 180.99, 9.65, 6.14, 0.000, 0.000, 0.000, 11:18:00.110
111, -16.17, 173.39, 9.69, 8.27, 0.000, 0.000, 0.000, 11:18:00.125
112, 1.39, 189.16, 6.58, 2.40, 0.000, 0.000, 0.000, 11:18:00.125
113, 32.04, 198.51, 7.44, 3.50, 0.000, 0.000, 0.000, 11:18:00.125
114, 1.95, 181.58, 6.97, 8.24, 0.000, 0.000, 0.000, 11:18:00.125
115, -17.11, 171.85, 8.77, 10.78, 0.000, 0.000, 0.000, 11:18:00.146
116, 6.14, 190.28, 5.85, 9.93, 0.000, 0.000, 0.000, 11:18:00.146
117, 22.59, 198.44, 5.85, 8.37, 0.000, 0.000, 0.000, 11:18:00.154
118, 1.74, 182.38, 10.07, 10.76, 0.000, 0.000, 0.000, 11:18:00.154
119, -18.91, 173.10, 7.42, 11.44, 0.000, 0.000, 0.000, 11:18:00.155
120, -1.85, 186.80, 7.01, 11.20, 0.000, 0.000, 0.000, 11:18:00.155
121, 25.25, 199.80, 6.20, 5.61, 0.000, 0.000, 0.000, 11:18:00.170
122, 5.01, 180.72, 7.75, 8.57, 0.000, 0.000, 0.000, 11:18:00.170
123, -22.62, 170.73, 8.38, 10.37, 0.000, 0.000, 0.000, 11:18:00.184
124, -0.14, 187.15, 10.52, 4.92, 0.000, 0.000, 0.000, 11:18:00.186
125, 29.37, 199.88, 7.66, 5.91, 0.000, 0.000, 0.000, 11:18:00.186
126, 1.26, 184.56, 9.99, 9.45, 0.000, 0.000, 0.000, 11:18:00.186
127, -18.40, 171.97, 10.96, 7.77, 0.000, 0.000, 0.000, 11:18:00.200
128, 1.51, 189.56, 7.02, 10.08, 0.000, 0.000, 0.000, 11:18:00.200
129, 30.33, 198.22, 7.66, 4.57, 0.000, 0.000, 0.000, 11:18:00.215
130, 4.32, 181.88, 6.82, 11.01, 0.000, 0.000, 0.000, 11:18:00.215
131, -17.29, 170.68, 3.41, 6.68, 0.000, 0.000, 0.000, 11:18:00.215
132, 1.85, 186.18, 7.80, 5.90, 0.000, 0.000, 0.000, 11:18:00.215
133, 25.81, 199.77, 9.04, 5.77, 0.000, 0.000, 0.000, 11:18:00.230
134, 10.52, 180.81, 5.45, 6.76, 0.000, 0.000, 0.000, 11:18:00.230
135, -17.85, 170.31, 8.11, 6.09, 0.000, 0.000, 0.000, 11:18:00.245
136, 0.43, 188.04, 8.26, 10.69, 0.000, 0.000, 0.000, 11:18:00.245
137, 21.94, 200.64, 4.25, 9.95, 0.000, 0.000, 0.000, 11:18:00.245
138, 5.92, 178.84, 9.91, 6.08, 0.000, 0.000, 0.000, 11:18:00.245
139, -16.68, 166.74, 10.81, 4.74, 0.000, 0.000, 0.000, 11:18:00.260
140, 3.49, 181.84, 3.45, 4.18, 0.000, 0.000, 0.000, 11:18:00.260
141, 23.08, 195.11, 10.54, 5.35, 0.000, 0.000, 0.000, 11:18:00.274
142, 5.61, 178.33, 8.40, 6.95, 0.000, 0.000, 0.000, 11:18:00.274
143, -22.29, 165.50, 5.85, 8.69, 0.000, 0.000, 0.000, 11:18:00.275
144, -2.94, 181.77, 6.03, 7.68, 0.000, 0.000, 0.000, 11:18:00.275
145, 24.00, 191.73, 5.50, 8.84, 0.000, 0.000, 0.000, 11:18:00.290
146, 9.98, 180.88, 9.90, 5.72, 0.000, 0.000, 0.000, 11:18:00.290
147, -21.04, 168.37, 10.81, 8.90, 0.000, 0.000, 0.000, 11:18:00.304
148, -0.72, 181.21, 10.54, 6.33, 0.000, 0.000, 0.000, 11:18:00.304
149, 25.44, 193.92, 10.25, 8.19, 0.000, 0.000, 0.000, 11:18:00.305
150, 2.28, 177.51, 9.49, 12.15, 0.000, 0.000, 0.000, 11:18:00.305
151, -23.49, 165.18, 8.60, 4.17, 0.000, 0.000, 0.000, 11:18:00.319
152, 4.62, 183.71, 10.03, 7.07, 0.000, 0.000, 0.000, 11:18:00.320
153, 28.73, 193.16, 10.35, 8.94, 0.000, 0.000, 0.000, 11:18:00.335
154, 3.82, 179.37, 10.66, 1.97, 0.000, 0.000, 0.000, 11:18:00.335
155, -19.74, 171.36, 7.46, 6.54, 0.000, 0.000, 0.000, 11:18:00.335
156, -1.02, 187.47, 5.45, 5.19, 0.000, 0.000, 0.000, 11:18:00.335
157, 18.63, 198.80, 8.22, 5.52, 0.000, 0.000, 0.000, 11:18:00.351
158, 2.33, 184.02, 8.57, 9.76, 0.000, 0.000, 0.000, 11:18:00.351
159, -26.01, 171.02, 4.25, 5.66, 0.000, 0.000, 0.000, 11:18:00.365
160, -1.60, 184.84, 3.82, 8.60, 0.000, 0.000, 0.000, 11:18:00.365
161, 22.10, 198.42, 6.68, 3.12, 0.000, 0.000, 0.000, 11:18:00.365
162, 2.37, 180.90, 8.62, 8.78, 0.000, 0.000, 0.000, 11:18:00.365
163, -16.80, 172.92, 10.10, 6.65, 0.000, 0.000, 0.000, 11:18:00.380
164, 2.86, 188.48, 8.91, 12.40, 0.000, 0.000, 0.000, 11:18:00.380
165, 25.18, 197.27, 7.17, 5.71, 0.000, 0.000, 0.000, 11:18:00.395
166, 7.97, 183.84, 6.95, 6.43, 0.000, 0.000, 0.000, 11:18:00.395
167, -17.72, 173.81, 5.42, 4.77, 0.000, 0.000, 0.000, 11:18:00.395
168, -0.80, 185.50, 4.76, 7.87, 0.000, 0.000, 0.000, 11:18:00.395
169, 28.98, 198.19, 4.35, 9.75, 0.000, 0.000, 0.000, 11:18:00.410
170, 8.71, 183.25, 12.65, 6.87, 0.000, 0.000, 0.000, 11:18:00.410
171, -20.31, 172.04, 2.48, 10.81, 0.000, 0.000, 0.000, 11:18:00.425
172, -0.65, 191.44, 7.39, 4.75, 0.000, 0.000, 0.000, 11:18:00.425
173, 27.68, 201.83, 6.55, 7.86, 0.000, 0.000, 0.000, 11:18:00.425
174, 4.39, 184.22, 9.38, 8.30, 0.000, 0.000, 0.000, 11:18:00.425
175, -20.50, 171.69, 7.29, 2.85, 0.000, 0.000, 0.000, 11:18:00.440
176, 4.10, 189.83, 11.24, 8.05, 0.000, 0.000, 0.000, 11:18:00.440
177, 20.77, 197.79, 7.73, 6.91, 0.000, 0.000, 0.000, 11:18:00.455
178, 9.51, 188.62, 7.62, 8.65, 0.000, 0.000, 0.000, 11:18:00.455
179, -16.28, 178.70, 7.76, 10.60, 0.000, 0.000, 0.000, 11:18:00.455
180, -0.53, 189.94, 8.41, 9.44, 0.000, 0.000, 0.000, 11:18:00.455
181, 26.20, 198.35, 8.78, 10.83, 0.000, 0.000, 0.000, 11:18:00.470
182, 5.24, 185.36, 9.73, 9.48, 0.000, 0.000, 0.000, 11:18:00.470
183, -19.95, 173.54, 10.90, 7.55, 0.000, 0.000, 0.000, 11:18:00.485
184, 2.17, 194.80, 5.90, 6.24, 0.000, 0.000, 0.000, 11:18:00.485
185, 29.60, 208.06, 8.70, 9.50, 0.000, 0.000, 0.000, 11:18:00.485
186, 7.36, 189.39, 3.35, 11.62, 0.000, 0.000, 0.000, 11:18:00.485
187, -21.72, 175.46, 6.47, 6.37, 0.000, 0.000, 0.000, 11:18:00.500
188, 3.75, 196.43, 5.99, 7.79, 0.000, 0.000, 0.000, 11:18:00.501
189, 23.91, 204.13, 8.32, 9.54, 0.000, 0.000, 0.000, 11:18:00.515
190, 4.67, 189.18, 10.13, 11.40, 0.000, 0.000, 0.000, 11:18:00.515
191, -18.12, 176.13, 5.72, 9.72, 0.000, 0.000, 0.000, 11:18:00.522
192, -1.90, 190.21, 9.36, 5.03, 0.000, 0.000, 0.000, 11:18:00.522
193, 26.17, 200.58, 6.20, 7.56, 0.000, 0.000, 0.000, 11:18:00.530
194, 3.23, 188.10, 9.05, 10.22, 0.000, 0.000, 0.000, 11:18:00.530
195, -22.32, 172.70, 7.53, 7.16, 0.000, 0.000, 0.000, 11:18:00.544
196, -2.29, 189.21, 8.83, 8.55, 0.000, 0.000, 0.000, 11:18:00.544
197, 30.15, 204.03, 7.98, 3.06, 0.000, 0.000, 0.000, 11:18:00.545
198, 6.94, 186.03, 6.08, 9.38, 0.000, 0.000, 0.000, 11:18:00.545
199, -22.68, 176.37, 8.75, 6.21, 0.000, 0.000, 0.000, 11:18:00.560
200, -3.71, 188.63, 5.64, 5.70, 0.000, 0.000, 0.000, 11:18:00.561
0, 22.53, 199.93, 9.12, 9.67, 0.000, 0.000, 0.000, 11:18:00.561
1, 0.57, 185.37, 7.71, 7.44, 0.000, 0.000, 0.000, 11:18:00.575
2, -20.98, 173.64, 6.13, 6.99, 0.000, 0.000, 0.000, 11:18:00.575
3, 1.33, 184.90, 8.74, 8.20, 0.000, 0.000, 0.000, 11:18:00.590
4, 22.85, 201.69, 7.69, 7.93, 0.000, 0.000, 0.000, 11:18:00.590
5, 2.95, 184.67, 5.50, 7.37, 0.000, 0.000, 0.000, 11:18:00.590
6, -21.04, 172.53, 4.87, 6.41, 0.000, 0.000, 0.000, 11:18:00.590
7, -2.61, 188.71, 3.87, 4.29, 0.000, 0.000, 0.000, 11:18:00.604
8, 25.74, 204.48, 8.36, 7.19, 0.000, 0.000, 0.000, 11:18:00.605
9, 4.46, 184.04, 4.62, 9.67, 0.000, 0.000, 0.000, 11:18:00.620
10, -22.45, 173.86, 3.90, 6.90, 0.000, 0.000, 0.000, 11:18:00.620
11, -0.97, 190.21, 8.03, 10.52, 0.000, 0.000, 0.000, 11:18:00.620
12, 27.02, 203.82, 9.34, 7.81, 0.000, 0.000, 0.000, 11:18:00.621
13, 9.70, 188.22, 8.26, 8.96, 0.000, 0.000, 0.000, 11:18:00.634
14, -19.06, 173.40, 5.72, 1.91, 0.000, 0.000, 0.000, 11:18:00.635
15, -0.99, 190.84, 6.22, 6.96, 0.000, 0.000, 0.000, 11:18:00.650
16, 28.98, 202.73, 7.18, 7.45, 0.000, 0.000, 0.000, 11:18:00.650
17, 4.87, 189.32, 9.05, 10.97, 0.000, 0.000, 0.000, 11:18:00.665
18, -21.18, 174.99, 5.82, 8.53, 0.000, 0.000, 0.000, 11:18:00.665
19, 1.85, 188.41, 2.23, 9.84, 0.000, 0.000, 0.000, 11:18:00.666
20, 26.63, 201.49, 7.13, 7.66, 0.000, 0.000, 0.000, 11:18:00.666
21, 6.07, 186.79, 8.10, 6.35, 0.000, 0.000, 0.000, 11:18:00.680
22, -18.41, 175.85, 5.88, 8.49, 0.000, 0.000, 0.000, 11:18:00.680
23, -0.95, 187.22, 7.71, 5.57, 0.000, 0.000, 0.000, 11:18:00.680
24, 20.12, 194.05, 7.45, 3.59, 0.000, 0.000, 0.000, 11:18:00.680
25, 6.54, 184.84, 7.78, 9.17, 0.000, 0.000, 0.000, 11:18:00.695
26, -14.79, 175.69, 8.33, 4.96, 0.000, 0.000, 0.000, 11:18:00.695
27, 0.00, 186.60, 8.15, 4.20, 0.000, 0.000, 0.000, 11:18:00.709
28, 22.03, 194.81, 8.89, 6.92, 0.000, 0.000, 0.000, 11:18:00.709
29, 12.25, 185.57, 4.24, 8.03, 0.000, 0.000, 0.000, 11:18:00.710
30, -20.36, 172.51, 6.88, 7.45, 0.000, 0.000, 0.000, 11:18:00.710
31, -4.17, 186.60, 9.21, 9.21, 0.000, 0.000, 0.000, 11:18:00.725
32, 22.95, 199.61, 6.01, 7.71, 0.000, 0.000, 0.000, 11:18:00.725
33, 11.78, 187.29, 8.11, 10.63, 0.000, 0.000, 0.000, 11:18:00.740
34, -21.65, 174.73, 7.33, 5.04, 0.000, 0.000, 0.000, 11:18:00.740
35, 0.14, 186.84, 7.88, 6.76, 0.000, 0.000, 0.000, 11:18:00.741
36, 20.76, 197.97, 4.51, 7.34, 0.000, 0.000, 0.000, 11:18:00.741
37, 6.60, 185.08, 9.33, 12.05, 0.000, 0.000, 0.000, 11:18:00.754
38, -17.46, 174.06, 6.10, 10.13, 0.000, 0.000, 0.000, 11:18:00.755
39, 2.67, 185.09, 5.45, 7.51, 0.000, 0.000, 0.000, 11:18:00.770
40, 24.40, 201.82, 11.47, 8.80, 0.000, 0.000, 0.000, 11:18:00.770
41, 7.24, 187.04, 12.03, 8.89, 0.000, 0.000, 0.000, 11:18:00.771
42, -19.19, 171.96, 6.48, 6.51, 0.000, 0.000, 0.000, 11:18:00.771
43, -4.82, 185.16, 4.44, 6.50, 0.000, 0.000, 0.000, 11:18:00.785
44, 24.27, 203.04, 6.51, 5.57, 0.000, 0.000, 0.000, 11:18:00.785
45, 5.89, 187.32, 8.54, 11.44, 0.000, 0.000, 0.000, 11:18:00.799
46, -20.16, 175.15, 6.59, 5.82, 0.000, 0.000, 0.000, 11:18:00.800
47, -2.19, 187.27, 5.99, 4.35, 0.000, 0.000, 0.000, 11:18:00.800
48, 26.78, 199.72, 9.79, 6.59, 0.000, 0.000, 0.000, 11:18:00.800
49, 4.54, 182.69, 10.74, 11.04, 0.000, 0.000, 0.000, 11:18:00.815
50, -14.52, 173.81, 2.03, 8.63, 0.000, 0.000, 0.000, 11:18:00.815
51, -4.80, 181.29, 7.59, 8.42, 0.000, 0.000, 0.000, 11:18:00.830
52, 22.11, 197.04, 6.41, 5.55, 0.000, 0.000, 0.000, 11:18:00.830
53, 6.17, 186.42, 12.61, 4.48, 0.000, 0.000, 0.000, 11:18:00.831
54, -18.59, 172.38, 7.97, 8.73, 0.000, 0.000, 0.000, 11:18:00.831
55, 0.03, 187.94, 7.30, 5.98, 0.000, 0.000, 0.000, 11:18:00.851
56, 29.84, 202.21, 5.79, 7.76, 0.000, 0.000, 0.000, 11:18:00.852
57, 1.52, 183.78, 8.50, 7.92, 0.000, 0.000, 0.000, 11:18:00.860
58, -20.11, 168.80, 9.67, 8.67, 0.000, 0.000, 0.000, 11:18:00.860
59, 0.07, 186.46, 6.71, 6.57, 0.000, 0.000, 0.000, 11:18:00.860
60, 23.92, 197.45, 2.66, 6.88, 0.000, 0.000, 0.000, 11:18:00.860
61, 6.08, 182.91, 7.26, 5.65, 0.000, 0.000, 0.000, 11:18:00.875
62, -19.81, 174.15, 9.37, 5.79, 0.000, 0.000, 0.000, 11:18:00.875
63, -1.71, 184.62, 9.58, 4.87, 0.000, 0.000, 0.000, 11:18:00.890
64, 25.72, 200.75, 7.07, 7.58, 0.000, 0.000, 0.000, 11:18:00.890
65, 10.32, 190.50, 9.66, 9.57, 0.000, 0.000, 0.000, 11:18:00.890
66, -21.13, 169.35, 8.80, 7.37, 0.000, 0.000, 0.000, 11:18:00.890
67, -0.55, 186.74, 5.34, 5.51, 0.000, 0.000, 0.000, 11:18:00.904
68, 26.15, 198.00, 9.19, 2.09, 0.000, 0.000, 0.000, 11:18:00.904
69, 5.88, 179.72, 9.84, 10.45, 0.000, 0.000, 0.000, 11:18:00.922
70, -17.89, 173.57, 3.73, 7.67, 0.000, 0.000, 0.000, 11:18:00.922
71, -1.90, 187.29, 4.88, 5.52, 0.000, 0.000, 0.000, 11:18:00.922
72, 25.64, 201.61, 7.44, 9.52, 0.000, 0.000, 0.000, 11:18:00.922
73, 7.25, 182.26, 9.39, 5.55, 0.000, 0.000, 0.000, 11:18:00.935
74, -17.41, 170.86, 10.08, 6.99, 0.000, 0.000, 0.000, 11:18:00.935
75, -4.32, 182.88, 6.98, 3.55, 0.000, 0.000, 0.000, 11:18:00.950
76, 23.88, 197.01, 6.49, 4.85, 0.000, 0.000, 0.000, 11:18:00.951
77, 5.29, 184.59, 9.58, 7.77, 0.000, 0.000, 0.000, 11:18:00.951
78, -25.60, 173.32, 10.06, 8.79, 0.000, 0.000, 0.000, 11:18:00.951
79, -3.58, 185.49, 7.08, 6.46, 0.000, 0.000, 0.000, 11:18:00.965
80, 28.22, 195.69, 8.49, 8.84, 0.000, 0.000, 0.000, 11:18:00.965
81, 6.41, 181.32, 4.89, 7.53, 0.000, 0.000, 0.000, 11:18:00.979
82, -18.64, 171.28, 7.18, 8.13, 0.000, 0.000, 0.000, 11:18:00.979
83, -1.19, 185.16, 6.20, 4.04, 0.000, 0.000, 0.000, 11:18:00.980
84, 22.57, 196.24, 4.36, 7.83, 0.000, 0.000, 0.000, 11:18:00.980
85, 8.24, 181.36, 7.23, 8.94, 0.000, 0.000, 0.000, 11:18:00.995
86, -16.41, 168.96, 6.26, 8.25, 0.000, 0.000, 0.000, 11:18:00.996
87, 0.26, 178.81, 6.71, 5.39, 0.000, 0.000, 0.000, 11:18:01.010
88, 22.31, 192.17, 3.91, 11.46, 0.000, 0.000, 0.000, 11:18:01.010
89, 10.74, 183.10, 9.39, 8.32, 0.000, 0.000, 0.000, 11:18:01.010
90, -17.60, 167.60, 8.17, 7.57, 0.000, 0.000, 0.000, 11:18:01.010
91, -3.90, 182.51, 5.70, 6.55, 0.000, 0.000, 0.000, 11:18:01.024
92, 22.38, 189.04, 7.87, 2.07, 0.000, 0.000, 0.000, 11:18:01.025
93, 7.05, 173.49, 7.69, 7.71, 0.000, 0.000, 0.000, 11:18:01.040
94, -20.39, 164.76, 11.04, 12.12, 0.000, 0.000, 0.000, 11:18:01.040
95, 0.55, 174.51, 6.21, 7.98, 0.000, 0.000, 0.000, 11:18:01.040
96, 26.14, 186.33, 5.34, 10.52, 0.000, 0.000, 0.000, 11:18:01.040
97, 10.68, 177.59, 10.23, 9.42, 0.000, 0.000, 0.000, 11:18:01.054
98, -17.86, 162.08, 4.71, 8.06, 0.000, 0.000, 0.000, 11:18:01.055
99, -2.11, 173.54, 3.17, 3.68, 0.000, 0.000, 0.000, 11:18:01.070
100, 25.66, 185.54, 4.42, 5.73, 0.000, 0.000, 0.000, 11:18:01.070
101, 8.59, 170.98, 7.03, 6.92, 0.000, 0.000, 0.000, 11:18:01.070
102, -16.87, 159.12, 7.21, 6.42, 0.000, 0.000, 0.000, 11:18:01.070
103, -4.43, 172.78, 7.18, 2.49, 0.000, 0.000, 0.000, 11:18:01.085
104, 24.73, 188.59, 8.34, 9.02, 0.000, 0.000, 0.000, 11:18:01.085
105, 6.21, 173.06, 4.44, 6.13, 0.000, 0.000, 0.000, 11:18:01.100
106, -21.98, 158.71, 3.30, 8.08, 0.000, 0.000, 0.000, 11:18:01.100
107, -2.55, 171.18, 5.85, 2.47, 0.000, 0.000, 0.000, 11:18:01.100
108, 26.26, 183.91, 9.50, 4.08, 0.000, 0.000, 0.000, 11:18:01.100
109, 4.82, 171.60, 6.73, 6.83, 0.000, 0.000, 0.000, 11:18:01.115
110, -15.83, 159.01, 9.83, 6.79, 0.000, 0.000, 0.000, 11:18:01.115
111, -2.33, 171.14, 8.57, 10.66, 0.000, 0.000, 0.000, 11:18:01.130
112, 21.09, 186.80, 4.14, 9.64, 0.000, 0.000, 0.000, 11:18:01.131
113, 8.44, 176.73, 8.32, 11.08, 0.000, 0.000, 0.000, 11:18:01.131
114, -20.85, 160.52, 4.91, 12.03, 0.000, 0.000, 0.000, 11:18:01.131
115, -4.50, 171.39, 6.00, 8.14, 0.000, 0.000, 0.000, 11:18:01.145
116, 23.90, 184.52, 4.39, 8.41, 0.000, 0.000, 0.000, 11:18:01.145
117, 13.56, 173.04, 4.93, 11.17, 0.000, 0.000, 0.000, 11:18:01.160
118, -18.83, 157.82, 4.33, 8.68, 0.000, 0.000, 0.000, 11:18:01.161
119, -3.65, 171.26, 8.01, 2.98, 0.000, 0.000, 0.000, 11:18:01.175
120, 21.80, 185.15, 7.64, 5.10, 0.000, 0.000, 0.000, 11:18:01.175
121, 9.59, 173.02, 9.40, 6.30, 0.000, 0.000, 0.000, 11:18:01.182
122, -17.43, 160.74, 7.40, 9.87, 0.000, 0.000, 0.000, 11:18:01.182
123, -7.04, 169.65, 7.15, 8.28, 0.000, 0.000, 0.000, 11:18:01.190
124, 21.72, 189.48, 8.01, 7.01, 0.000, 0.000, 0.000, 11:18:01.190
125, 6.77, 177.90, 11.13, 5.65, 0.000, 0.000, 0.000, 11:18:01.190
126, -20.38, 163.99, 8.23, 7.59, 0.000, 0.000, 0.000, 11:18:01.190
127, -7.29, 172.91, 7.23, 7.54, 0.000, 0.000, 0.000, 11:18:01.204
128, 23.61, 187.31, 8.02, 7.07, 0.000, 0.000, 0.000, 11:18:01.204
129, 9.23, 177.74, 6.95, 4.07, 0.000, 0.000, 0.000, 11:18:01.220
130, -19.85, 159.94, 6.90, 5.18, 0.000, 0.000, 0.000, 11:18:01.221
131, -4.35, 166.79, 8.05, 7.75, 0.000, 0.000, 0.000, 11:18:01.221
132, 19.31, 180.67, 7.07, 9.24, 0.000, 0.000, 0.000, 11:18:01.221
133, 7.07, 169.86, 11.19, 4.86, 0.000, 0.000, 0.000, 11:18:01.235
134, -18.22, 155.29, 7.26, 10.43, 0.000, 0.000, 0.000, 11:18:01.236
135, -7.07, 167.28, 6.47, 14.71, 0.000, 0.000, 0.000, 11:18:01.250
136, 25.64, 188.20, 7.57, 14.26, 0.000, 0.000, 0.000, 11:18:01.250
137, 6.86, 169.81, 8.38, 9.23, 0.000, 0.000, 0.000, 11:18:01.250
138, -22.43, 156.54, 9.10, 13.20, 0.000, 0.000, 0.000, 11:18:01.251
139, -3.38, 170.50, 6.41, 12.21, 0.000, 0.000, 0.000, 11:18:01.265
140, 23.77, 188.00, 6.01, 10.98, 0.000, 0.000, 0.000, 11:18:01.265
141, 6.61, 170.45, 10.16, 5.59, 0.000, 0.000, 0.000, 11:18:01.279
142, -24.03, 157.54, 9.41, 11.47, 0.000, 0.000, 0.000, 11:18:01.279
143, -4.39, 170.17, 8.80, 7.29, 0.000, 0.000, 0.000, 11:18:01.280
144, 21.18, 181.63, 5.98, 6.83, 0.000, 0.000, 0.000, 11:18:01.280
145, 6.86, 170.50, 9.94, 8.58, 0.000, 0.000, 0.000, 11:18:01.295
146, -15.90, 157.41, 9.96, 4.79, 0.000, 0.000, 0.000, 11:18:01.295
147, -5.49, 166.47, 4.34, 9.19, 0.000, 0.000, 0.000, 11:18:01.310
148, 22.98, 180.97, 11.61, 4.78, 0.000, 0.000, 0.000, 11:18:01.310
149, 8.65, 170.96, 3.69, 7.90, 0.000, 0.000, 0.000, 11:18:01.310
150, -19.89, 153.33, 10.85, 7.00, 0.000, 0.000, 0.000, 11:18:01.311
151, -2.59, 166.43, 6.31, 5.46, 0.000, 0.000, 0.000, 11:18:01.325
152, 25.50, 183.61, 10.22, 9.15, 0.000, 0.000, 0.000, 11:18:01.325
153, 5.79, 165.94, 8.63, 8.61, 0.000, 0.000, 0.000, 11:18:01.340
154, -20.20, 151.65, 4.68, 9.33, 0.000, 0.000, 0.000, 11:18:01.340
155, -5.42, 162.98, 3.66, 8.35, 0.000, 0.000, 0.000, 11:18:01.340
156, 19.87, 178.57, 13.12, 8.40, 0.000, 0.000, 0.000, 11:18:01.340
157, 7.90, 168.23, 7.97, 8.51, 0.000, 0.000, 0.000, 11:18:01.355
158, -17.88, 154.47, 10.95, 5.39, 0.000, 0.000, 0.000, 11:18:01.355
159, -1.42, 165.27, 5.38, 8.35, 0.000, 0.000, 0.000, 11:18:01.370
160, 25.41, 180.78, 9.33, 9.88, 0.000, 0.000, 0.000, 11:18:01.370
161, 9.59, 166.89, 7.09, 6.84, 0.000, 0.000, 0.000, 11:18:01.371
162, -20.04, 151.91, 9.02, 8.95, 0.000, 0.000, 0.000, 11:18:01.371
163, -5.87, 166.14, 5.01, 10.12, 0.000, 0.000, 0.000, 11:18:01.385
164, 23.60, 177.92, 8.93, 6.28, 0.000, 0.000, 0.000, 11:18:01.385
165, 8.33, 165.20, 10.39, 7.28, 0.000, 0.000, 0.000, 11:18:01.400
166, -16.77, 149.04, 7.61, 3.78, 0.000, 0.000, 0.000, 11:18:01.400
167, -9.42, 163.21, 8.03, 3.90, 0.000, 0.000, 0.000, 11:18:01.400
168, 20.42, 178.88, 12.17, 7.36, 0.000, 0.000, 0.000, 11:18:01.401
169, 8.16, 164.92, 7.55, 14.77, 0.000, 0.000, 0.000, 11:18:01.415
170, -18.21, 152.41, 9.74, 5.99, 0.000, 0.000, 0.000, 11:18:01.415
171, -4.33, 161.24, 7.73, 4.69, 0.000, 0.000, 0.000, 11:18:01.430
172, 21.89, 178.61, 3.55, 6.52, 0.000, 0.000, 0.000, 11:18:01.430
173, 8.50, 165.21, 7.19, 12.56, 0.000, 0.000, 0.000, 11:18:01.430
174, -17.67, 150.95, 9.60, 2.91, 0.000, 0.000, 0.000, 11:18:01.430
175, -8.53, 165.39, 6.99, 8.26, 0.000, 0.000, 0.000, 11:18:01.445
176, 28.02, 177.52, 7.26, 5.43, 0.000, 0.000, 0.000, 11:18:01.445
177, 13.67, 164.35, 6.82, 2.82, 0.000, 0.000, 0.000, 11:18:01.463
178, -20.52, 148.83, 9.62, 7.20, 0.000, 0.000, 0.000, 11:18:01.463
179, -7.73, 159.69, 3.02, 6.21, 0.000, 0.000, 0.000, 11:18:01.464
180, 22.08, 177.14, 4.82, 7.70, 0.000, 0.000, 0.000, 11:18:01.464
181, 10.29, 165.25, 7.61, 10.56, 0.000, 0.000, 0.000, 11:18:01.476
182, -20.29, 153.30, 5.95, 7.93, 0.000, 0.000, 0.000, 11:18:01.476
183, -6.88, 164.39, 6.85, 7.88, 0.000, 0.000, 0.000, 11:18:01.490
184, 20.84, 177.20, 9.59, 6.61, 0.000, 0.000, 0.000, 11:18:01.490
185, 11.52, 165.34, 8.10, 6.93, 0.000, 0.000, 0.000, 11:18:01.491
186, -16.67, 155.63, 8.47, 7.94, 0.000, 0.000, 0.000, 11:18:01.491
187, -7.48, 162.52, 5.89, 12.72, 0.000, 0.000, 0.000, 11:18:01.512
188, 24.54, 176.10, 7.19, 5.92, 0.000, 0.000, 0.000, 11:18:01.512
189, 11.98, 166.15, 9.29, 8.58, 0.000, 0.000, 0.000, 11:18:01.519
190, -21.12, 148.10, 4.23, 9.17, 0.000, 0.000, 0.000, 11:18:01.519
191, -0.25, 163.57, 9.69, 7.51, 0.000, 0.000, 0.000, 11:18:01.520
192, 23.39, 178.25, 8.22, 6.26, 0.000, 0.000, 0.000, 11:18:01.520
193, 6.58, 166.80, 9.80, 7.39, 0.000, 0.000, 0.000, 11:18:01.535
194, -19.07, 151.79, 7.86, 8.24, 0.000, 0.000, 0.000, 11:18:01.535
195, -4.84, 165.12, 6.17, 6.51, 0.000, 0.000, 0.000, 11:18:01.549
196, 24.14, 176.85, 3.17, 5.58, 0.000, 0.000, 0.000, 11:18:01.549
197, 9.09, 163.91, 10.72, 5.91, 0.000, 0.000, 0.000, 11:18:01.550
198, -17.98, 150.99, 6.04, 10.73, 0.000, 0.000, 0.000, 11:18:01.550
199, -6.61, 161.09, 6.86, 5.14, 0.000, 0.000, 0.000, 11:18:01.565
200, 24.49, 177.10, 5.51, 9.20, 0.000, 0.000, 0.000, 11:18:01.565
0, 6.70, 164.33, 9.95, 12.80, 0.000, 0.000, 0.000, 11:18:01.566
1, -21.85, 150.15, 10.67, 10.06, 0.000, 0.000, 0.000, 11:18:01.580
2, -7.63, 162.20, 7.16, 7.82, 0.000, 0.000, 0.000, 11:18:01.580
3, 20.92, 176.71, 4.73, 4.50, 0.000, 0.000, 0.000, 11:18:01.595
4, 8.61, 167.49, 10.98, 10.21, 0.000, 0.000, 0.000, 11:18:01.595
5, -18.91, 151.96, 10.09, 13.47, 0.000, 0.000, 0.000, 11:18:01.596
6, -4.85, 161.81, 6.83, 8.23, 0.000, 0.000, 0.000, 11:18:01.596
7, 22.62, 175.64, 6.60, 5.48, 0.000, 0.000, 0.000, 11:18:01.610
8, 9.31, 167.88, 6.47, 8.87, 0.000, 0.000, 0.000, 11:18:01.610
9, -21.72, 153.80, 6.67, 3.75, 0.000, 0.000, 0.000, 11:18:01.624
10, -8.07, 160.19, 7.08, 4.30, 0.000, 0.000, 0.000, 11:18:01.625
11, 21.72, 173.66, 4.36, 9.02, 0.000, 0.000, 0.000, 11:18:01.625
12, 13.05, 163.12, 8.89, 5.25, 0.000, 0.000, 0.000, 11:18:01.625
13, -19.49, 151.47, 8.85, 6.97, 0.000, 0.000, 0.000, 11:18:01.640
14, -3.50, 158.34, 4.36, 5.49, 0.000, 0.000, 0.000, 11:18:01.640
15, 20.45, 170.69, 11.34, 4.47, 0.000, 0.000, 0.000, 11:18:01.655
16, 8.67, 163.92, 7.94, 5.32, 0.000, 0.000, 0.000, 11:18:01.655
17, -17.91, 148.80, 7.80, 8.91, 0.000, 0.000, 0.000, 11:18:01.655
18, -6.50, 161.91, 9.58, 7.65, 0.000, 0.000, 0.000, 11:18:01.655
19, 22.50, 181.50, 7.69, 7.21, 0.000, 0.000, 0.000, 11:18:01.670
20, 11.97, 169.98, 9.13, 9.01, 0.000, 0.000, 0.000, 11:18:01.670
21, -19.40, 153.67, 6.88, 4.16, 0.000, 0.000, 0.000, 11:18:01.685
22, -4.99, 165.08, 9.16, 11.75, 0.000, 0.000, 0.000, 11:18:01.685
23, 22.36, 180.50, 8.15, 6.09, 0.000, 0.000, 0.000, 11:18:01.685
24, 9.50, 169.66, 8.45, 6.39, 0.000, 0.000, 0.000, 11:18:01.685
25, -17.89, 154.54, 11.38, 10.48, 0.000, 0.000, 0.000, 11:18:01.700
26, 0.49, 165.27, 6.23, 7.12, 0.000, 0.000, 0.000, 11:18:01.700
27, 23.74, 175.60, 9.31, 7.37, 0.000, 0.000, 0.000, 11:18:01.715
28, 5.38, 167.46, 7.25, 6.07, 0.000, 0.000, 0.000, 11:18:01.715
29, -20.51, 152.89, 8.74, 4.17, 0.000, 0.000, 0.000, 11:18:01.715
30, -4.76, 164.51, 5.98, 8.28, 0.000, 0.000, 0.000, 11:18:01.715
31, 23.02, 174.32, 6.38, 5.89, 0.000, 0.000, 0.000, 11:18:01.730
32, 13.25, 170.08, 5.57, 8.89, 0.000, 0.000, 0.000, 11:18:01.730
33, -18.13, 156.66, 7.36, 8.93, 0.000, 0.000, 0.000, 11:18:01.745
34, -2.23, 161.92, 7.93, 7.93, 0.000, 0.000, 0.000, 11:18:01.745
35, 22.24, 177.02, 7.48, 6.11, 0.000, 0.000, 0.000, 11:18:01.746
36, 7.68, 167.14, 11.03, 4.65, 0.000, 0.000, 0.000, 11:18:01.746
37, -18.32, 153.40, 8.86, 10.31, 0.000, 0.000, 0.000, 11:18:01.760
38, -7.62, 158.47, 3.06, 7.73, 0.000, 0.000, 0.000, 11:18:01.760
39, 24.00, 174.90, 4.07, 10.05, 0.000, 0.000, 0.000, 11:18:01.775
40, 6.89, 164.79, 10.90, 10.15, 0.000, 0.000, 0.000, 11:18:01.775
41, -19.82, 149.79, 11.20, 11.33, 0.000, 0.000, 0.000, 11:18:01.775
42, -7.33, 156.32, 9.08, 8.45, 0.000, 0.000, 0.000, 11:18:01.775
43, 18.64, 173.08, 5.10, 6.73, 0.000, 0.000, 0.000, 11:18:01.789
44, 12.53, 163.40, 4.80, 6.34, 0.000, 0.000, 0.000, 11:18:01.789
45, -19.11, 148.59, 9.36, 5.34, 0.000, 0.000, 0.000, 11:18:01.805
46, -4.56, 156.20, 5.81, 8.61, 0.000, 0.000, 0.000, 11:18:01.805
47, 21.26, 170.40, 5.64, 6.54, 0.000, 0.000, 0.000, 11:18:01.805
48, 10.52, 159.17, 8.94, 5.41, 0.000, 0.000, 0.000, 11:18:01.805
49, -17.36, 144.63, 9.19, 9.29, 0.000, 0.000, 0.000, 11:18:01.820
50, -0.27, 156.85, 0.46, 7.91, 0.000, 0.000, 0.000, 11:18:01.820
51, 22.49, 170.08, 5.55, 6.27, 0.000, 0.000, 0.000, 11:18:01.835
52, 10.28, 163.90, 10.49, 10.08, 0.000, 0.000, 0.000, 11:18:01.835
53, -18.59, 145.71, 9.46, 5.73, 0.000, 0.000, 0.000, 11:18:01.835
54, -7.79, 153.60, 7.61, 6.64, 0.000, 0.000, 0.000, 11:18:01.835
55, 19.10, 172.36, 5.99, 8.75, 0.000, 0.000, 0.000, 11:18:01.850
56, 10.30, 163.11, 9.58, 7.07, 0.000, 0.000, 0.000, 11:18:01.850
57, -19.60, 145.98, 9.40, 11.83, 0.000, 0.000, 0.000, 11:18:01.865
58, -6.55, 154.18, 5.59, 6.88, 0.000, 0.000, 0.000, 11:18:01.865
59, 24.24, 174.97, 7.75, 4.98, 0.000, 0.000, 0.000, 11:18:01.865
60, 10.76, 162.60, 9.36, 8.13, 0.000, 0.000, 0.000, 11:18:01.865
61, -19.71, 145.08, 7.78, 7.63, 0.000, 0.000, 0.000, 11:18:01.880
62, -5.47, 158.21, 7.62, 9.22, 0.000, 0.000, 0.000, 11:18:01.881
63, 17.53, 170.13, 8.46, 5.89, 0.000, 0.000, 0.000, 11:18:01.895
64, 11.61, 165.64, 10.23, 7.61, 0.000, 0.000, 0.000, 11:18:01.895
65, -21.65, 152.68, 11.35, 8.67, 0.000, 0.000, 0.000, 11:18:01.895
66, -5.42, 161.62, 7.27, 9.13, 0.000, 0.000, 0.000, 11:18:01.895
67, 19.08, 175.69, 3.94, 9.66, 0.000, 0.000, 0.000, 11:18:01.910
68, 18.20, 168.17, 6.06, 8.58, 0.000, 0.000, 0.000, 11:18:01.910
69, -20.36, 151.11, 7.22, 13.00, 0.000, 0.000, 0.000, 11:18:01.925
70, -4.73, 160.55, 7.32, 11.22, 0.000, 0.000, 0.000, 11:18:01.925
71, 25.11, 173.74, 11.96, 7.44, 0.000, 0.000, 0.000, 11:18:01.925
72, 10.90, 161.77, 6.44, 9.82, 0.000, 0.000, 0.000, 11:18:01.925
73, -15.76, 148.22, 7.03, 5.88, 0.000, 0.000, 0.000, 11:18:01.947
74, -3.76, 154.16, 4.98, 6.43, 0.000, 0.000, 0.000, 11:18:01.947
75, 22.46, 171.13, 8.60, 9.55, 0.000, 0.000, 0.000, 11:18:01.955
76, 10.14, 161.04, 8.98, 9.00, 0.000, 0.000, 0.000, 11:18:01.955
77, -17.65, 147.94, 11.06, 6.78, 0.000, 0.000, 0.000, 11:18:01.955
78, -3.49, 157.21, 7.14, 4.93, 0.000, 0.000, 0.000, 11:18:01.955
79, 17.79, 173.46, 8.72, 5.52, 0.000, 0.000, 0.000, 11:18:01.969
80, 10.47, 165.00, 6.31, 8.28, 0.000, 0.000, 0.000, 11:18:01.969
81, -18.66, 148.20, 10.82, 4.32, 0.000, 0.000, 0.000, 11:18:01.985
82, -4.84, 158.95, 5.24, 6.74, 0.000, 0.000, 0.000, 11:18:01.985
83, 24.95, 171.73, 5.67, 6.25, 0.000, 0.000, 0.000, 11:18:01.985
84, 11.17, 161.87, 6.89, 5.74, 0.000, 0.000, 0.000, 11:18:01.985
85, -18.83, 147.26, 6.54, 8.00, 0.000, 0.000, 0.000, 11:18:02.000
86, -9.26, 160.03, 6.49, 9.25, 0.000, 0.000, 0.000, 11:18:02.000
87, 22.82, 175.21, 9.16, 7.04, 0.000, 0.000, 0.000, 11:18:02.015
88, 14.05, 167.08, 6.86, 7.38, 0.000, 0.000, 0.000, 11:18:02.015
89, -17.16, 155.04, 7.16, 10.65, 0.000, 0.000, 0.000, 11:18:02.015
90, -9.19, 161.55, 6.22, 7.79, 0.000, 0.000, 0.000, 11:18:02.015
91, 20.03, 179.26, 5.24, 3.95, 0.000, 0.000, 0.000, 11:18:02.030
92, 13.06, 174.27, 7.95, 8.48, 0.000, 0.000, 0.000, 11:18:02.030
93, -20.55, 153.21, 10.52, 5.24, 0.000, 0.000, 0.000, 11:18:02.045
94, -10.15, 161.17, 7.93, 8.85, 0.000, 0.000, 0.000, 11:18:02.045
95, 22.74, 177.42, 9.10, 7.49, 0.000, 0.000, 0.000, 11:18:02.045
96, 9.07, 166.70, 7.31, 0.19, 0.000, 0.000, 0.000, 11:18:02.045
97, -21.26, 151.38, 6.09, 9.92, 0.000, 0.000, 0.000, 11:18:02.059
98, -6.04, 165.14, 6.06, 5.20, 0.000, 0.000, 0.000, 11:18:02.060
99, 22.83, 179.73, 7.01, 4.76, 0.000, 0.000, 0.000, 11:18:02.075
100, 6.98, 168.04, 2.91, 7.47, 0.000, 0.000, 0.000, 11:18:02.075
101, -18.40, 148.52, 7.23, 9.04, 0.000, 0.000, 0.000, 11:18:02.075
102, -7.80, 158.30, 10.49, 4.43, 0.000, 0.000, 0.000, 11:18:02.076
103, 20.96, 179.24, 8.12, 3.41, 0.000, 0.000, 0.000, 11:18:02.089
104, 15.92, 172.61, 7.20, 7.24, 0.000, 0.000, 0.000, 11:18:02.090
105, -16.60, 154.26, 3.30, 6.49, 0.000, 0.000, 0.000, 11:18:02.104
106, -5.81, 164.30, 7.20, 5.17, 0.000, 0.000, 0.000, 11:18:02.105
107, 22.94, 180.35, 9.20, 6.79, 0.000, 0.000, 0.000, 11:18:02.105
108, 8.35, 171.64, 6.16, 10.17, 0.000, 0.000, 0.000, 11:18:02.105
109, -20.71, 151.78, 10.91, 1.93, 0.000, 0.000, 0.000, 11:18:02.121
110, -6.09, 162.08, 7.47, 2.74, 0.000, 0.000, 0.000, 11:18:02.121
111, 18.65, 178.64, 2.60, 5.85, 0.000, 0.000, 0.000, 11:18:02.135
112, 10.12, 168.86, 6.85, 5.47, 0.000, 0.000, 0.000, 11:18:02.135
113, -15.55, 154.09, 5.74, 8.64, 0.000, 0.000, 0.000, 11:18:02.135
114, -8.57, 167.95, 7.35, 5.69, 0.000, 0.000, 0.000, 11:18:02.136
115, 20.47, 180.12, 6.89, 7.76, 0.000, 0.000, 0.000, 11:18:02.150
116, 15.61, 174.61, 7.50, 8.33, 0.000, 0.000, 0.000, 11:18:02.151
117, -17.45, 158.76, 10.33, 3.81, 0.000, 0.000, 0.000, 11:18:02.167
118, -7.87, 165.58, 6.39, 7.06, 0.000, 0.000, 0.000, 11:18:02.167
119, 20.99, 183.83, 5.15, 7.61, 0.000, 0.000, 0.000, 11:18:02.167
120, 15.16, 172.48, 8.64, 6.25, 0.000, 0.000, 0.000, 11:18:02.167
121, -18.63, 155.18, 9.95, 8.59, 0.000, 0.000, 0.000, 11:18:02.180
122, -4.75, 164.59, 7.16, 5.30, 0.000, 0.000, 0.000, 11:18:02.180
123, 18.33, 179.12, 6.81, 8.29, 0.000, 0.000, 0.000, 11:18:02.195
124, 14.04, 173.27, 9.33, 7.84, 0.000, 0.000, 0.000, 11:18:02.195
125, -15.65, 155.95, 6.62, 9.56, 0.000, 0.000, 0.000, 11:18:02.195
126, -9.17, 166.30, 6.11, 10.19, 0.000, 0.000, 0.000, 11:18:02.195
127, 18.30, 184.02, 7.13, 5.42, 0.000, 0.000, 0.000, 11:18:02.210
128, 16.23, 179.32, 10.61, 7.43, 0.000, 0.000, 0.000, 11:18:02.210
129, -16.41, 156.55, 11.66, 7.50, 0.000, 0.000, 0.000, 11:18:02.225
130, -8.52, 168.42, 11.77, 5.84, 0.000, 0.000, 0.000, 11:18:02.225
131, 24.45, 185.71, 7.12, 9.77, 0.000, 0.000, 0.000, 11:18:02.225
132, 10.14, 173.77, 8.23, 6.46, 0.000, 0.000, 0.000, 11:18:02.225
133, -16.81, 159.92, 10.15, 7.78, 0.000, 0.000, 0.000, 11:18:02.239
134, -7.11, 170.12, 11.61, 6.81, 0.000, 0.000, 0.000, 11:18:02.239
135, 15.74, 182.85, 5.76, 7.88, 0.000, 0.000, 0.000, 11:18:02.255
136, 13.87, 178.92, 8.33, 10.50, 0.000, 0.000, 0.000, 11:18:02.255
137, -18.28, 161.34, 6.90, 6.31, 0.000, 0.000, 0.000, 11:18:02.256
138, -12.94, 168.55, 8.23, 5.91, 0.000, 0.000, 0.000, 11:18:02.256
139, 21.97, 187.61, 8.78, 8.48, 0.000, 0.000, 0.000, 11:18:02.285
140, 16.15, 174.77, 6.30, 9.99, 0.000, 0.000, 0.000, 11:18:02.285
141, -17.29, 157.10, 5.45, 6.53, 0.000, 0.000, 0.000, 11:18:02.286
142, -11.86, 165.21, 7.12, 7.57, 0.000, 0.000, 0.000, 11:18:02.286
143, 16.40, 184.69, 5.60, 4.83, 0.000, 0.000, 0.000, 11:18:02.286
144, 12.12, 175.67, 10.73, 9.46, 0.000, 0.000, 0.000, 11:18:02.286
145, -16.15, 160.55, 9.08, 10.74, 0.000, 0.000, 0.000, 11:18:02.300
146, -5.22, 168.62, 7.94, 10.39, 0.000, 0.000, 0.000, 11:18:02.300
147, 19.28, 185.27, 6.41, 7.93, 0.000, 0.000, 0.000, 11:18:02.314
148, 13.01, 177.77, 11.67, 9.52, 0.000, 0.000, 0.000, 11:18:02.315
149, -14.36, 162.75, 7.00, 6.90, 0.000, 0.000, 0.000, 11:18:02.315
150, -9.29, 170.50, 6.17, 13.74, 0.000, 0.000, 0.000, 11:18:02.315
151, 18.34, 188.41, 4.40, 8.54, 0.000, 0.000, 0.000, 11:18:02.330
152, 19.46, 181.88, 5.85, 8.94, 0.000, 0.000, 0.000, 11:18:02.330
153, -21.88, 158.55, 9.65, 10.43, 0.000, 0.000, 0.000, 11:18:02.345
154, -11.20, 164.40, 9.30, 6.22, 0.000, 0.000, 0.000, 11:18:02.345
155, 19.86, 181.77, 9.82, 5.72, 0.000, 0.000, 0.000, 11:18:02.345
156, 10.83, 175.55, 6.86, 9.71, 0.000, 0.000, 0.000, 11:18:02.345
157, -13.56, 159.74, 8.32, 10.23, 0.000, 0.000, 0.000, 11:18:02.375
158, -7.20, 166.70, 6.42, 7.23, 0.000, 0.000, 0.000, 11:18:02.375
159, 21.12, 183.61, 6.87, 3.31, 0.000, 0.000, 0.000, 11:18:02.375
160, 10.21, 173.07, 7.74, 4.90, 0.000, 0.000, 0.000, 11:18:02.375
161, -13.88, 161.12, 7.62, 6.09, 0.000, 0.000, 0.000, 11:18:02.377
162, -8.42, 167.13, 5.90, 5.27, 0.000, 0.000, 0.000, 11:18:02.377
163, 19.43, 184.90, 6.75, 11.86, 0.000, 0.000, 0.000, 11:18:02.389
164, 14.70, 177.19, 7.28, 8.60, 0.000, 0.000, 0.000, 11:18:02.389
165, -14.56, 157.72, 6.44, 10.53, 0.000, 0.000, 0.000, 11:18:02.405
166, -8.29, 168.25, 5.72, 6.43, 0.000, 0.000, 0.000, 11:18:02.405
167, 21.22, 181.96, 6.72, 9.13, 0.000, 0.000, 0.000, 11:18:02.405
168, 12.97, 179.34, 6.47, 6.19, 0.000, 0.000, 0.000, 11:18:02.405
169, -14.97, 160.31, 9.86, 3.25, 0.000, 0.000, 0.000, 11:18:02.420
170, -5.87, 171.41, 4.30, 8.10, 0.000, 0.000, 0.000, 11:18:02.420
171, 17.44, 183.89, 7.73, 3.93, 0.000, 0.000, 0.000, 11:18:02.435
172, 14.30, 178.46, 6.71, 7.20, 0.000, 0.000, 0.000, 11:18:02.435
173, -15.20, 161.71, 5.47, 5.96, 0.000, 0.000, 0.000, 11:18:02.435
174, -11.03, 167.74, 8.46, 9.68, 0.000, 0.000, 0.000, 11:18:02.435
175, 16.43, 184.32, 9.34, 7.14, 0.000, 0.000, 0.000, 11:18:02.450
176, 16.86, 178.42, 3.91, 7.88, 0.000, 0.000, 0.000, 11:18:02.450
177, -20.71, 157.78, 8.95, 6.42, 0.000, 0.000, 0.000, 11:18:02.465
178, -7.91, 168.31, 9.04, 8.73, 0.000, 0.000, 0.000, 11:18:02.466
179, 23.58, 186.43, 7.56, 7.63, 0.000, 0.000, 0.000, 11:18:02.466
180, 12.47, 179.69, 10.44, 6.21, 0.000, 0.000, 0.000, 11:18:02.466
181, -19.61, 160.91, 4.93, 6.12, 0.000, 0.000, 0.000, 11:18:02.480
182, -12.34, 167.80, 7.34, 4.08, 0.000, 0.000, 0.000, 11:18:02.480
183, 20.75, 183.27, 11.83, 5.83, 0.000, 0.000, 0.000, 11:18:02.496
184, 12.46, 175.33, 6.24, 5.66, 0.000, 0.000, 0.000, 11:18:02.496
185, -14.13, 162.42, 8.47, 9.44, 0.000, 0.000, 0.000, 11:18:02.496
186, -6.29, 168.48, 9.42, 8.35, 0.000, 0.000, 0.000, 11:18:02.496
187, 14.03, 189.43, 7.40, 3.81, 0.000, 0.000, 0.000, 11:18:02.510
188, 11.77, 181.53, 5.43, 11.87, 0.000, 0.000, 0.000, 11:18:02.510
189, -16.11, 161.51, 7.79, 6.51, 0.000, 0.000, 0.000, 11:18:02.525
190, -8.12, 168.94, 4.90, 6.87, 0.000, 0.000, 0.000, 11:18:02.525
191, 19.81, 190.60, 7.66, 6.40, 0.000, 0.000, 0.000, 11:18:02.525
192, 18.93, 180.41, 4.32, 7.83, 0.000, 0.000, 0.000, 11:18:02.525
193, -12.19, 163.04, 8.31, 8.56, 0.000, 0.000, 0.000, 11:18:02.540
194, -4.62, 171.94, 7.95, 6.58, 0.000, 0.000, 0.000, 11:18:02.540
195, 20.41, 186.40, 6.30, 9.03, 0.000, 0.000, 0.000, 11:18:02.556
196, 9.15, 179.74, 4.75, 8.00, 0.000, 0.000, 0.000, 11:18:02.556
197, -16.43, 162.71, 8.45, 10.60, 0.000, 0.000, 0.000, 11:18:02.556
198, -7.87, 170.43, 6.94, 7.01, 0.000, 0.000, 0.000, 11:18:02.556
199, 19.30, 186.16, 6.09, 4.89, 0.000, 0.000, 0.000, 11:18:02.570
200, 17.41, 179.43, 5.74, 5.68, 0.000, 0.000, 0.000, 11:18:02.570
0, -20.34, 160.75, 11.36, 11.57, 0.000, 0.000, 0.000, 11:18:02.570
1, -8.88, 170.46, 8.22, 5.83, 0.000, 0.000, 0.000, 11:18:02.586
2, 18.74, 185.00, 8.12, 4.35, 0.000, 0.000, 0.000, 11:18:02.586
3, 12.84, 179.96, 6.40, 6.86, 0.000, 0.000, 0.000, 11:18:02.600
4, -15.90, 166.50, 8.43, 4.50, 0.000, 0.000, 0.000, 11:18:02.600
5, -7.05, 170.99, 7.27, 9.33, 0.000, 0.000, 0.000, 11:18:02.601
6, 16.31, 188.63, 6.17, 11.00, 0.000, 0.000, 0.000, 11:18:02.601
7, 15.89, 184.67, 6.99, 6.83, 0.000, 0.000, 0.000, 11:18:02.615
8, -12.56, 163.03, 4.85, 8.20, 0.000, 0.000, 0.000, 11:18:02.615
9, -11.00, 171.85, 6.72, 9.62, 0.000, 0.000, 0.000, 11:18:02.630
10, 21.21, 184.83, 6.50, 7.05, 0.000, 0.000, 0.000, 11:18:02.631
11, 19.92, 176.99, 11.53, 10.79, 0.000, 0.000, 0.000, 11:18:02.631
12, -14.88, 163.43, 9.90, 9.22, 0.000, 0.000, 0.000, 11:18:02.631
13, -10.54, 168.59, 6.45, 8.58, 0.000, 0.000, 0.000, 11:18:02.645
14, 26.30, 184.08, 2.87, 6.84, 0.000, 0.000, 0.000, 11:18:02.646
15, 13.39, 178.40, 6.38, 10.58, 0.000, 0.000, 0.000, 11:18:02.660
16, -14.13, 156.75, 8.55, 7.75, 0.000, 0.000, 0.000, 11:18:02.660
17, -7.12, 167.82, 6.70, 8.23, 0.000, 0.000, 0.000, 11:18:02.660
18, 14.50, 182.17, 6.97, 9.04, 0.000, 0.000, 0.000, 11:18:02.660
19, 13.37, 177.58, 9.57, 3.85, 0.000, 0.000, 0.000, 11:18:02.675
20, -15.40, 161.10, 12.60, 4.97, 0.000, 0.000, 0.000, 11:18:02.676
21, -8.54, 167.84, 9.89, 8.73, 0.000, 0.000, 0.000, 11:18:02.690
22, 18.64, 185.24, 7.42, 11.40, 0.000, 0.000, 0.000, 11:18:02.690
23, 17.06, 181.81, 9.69, 7.66, 0.000, 0.000, 0.000, 11:18:02.690
24, -19.18, 156.51, 6.45, 6.70, 0.000, 0.000, 0.000, 11:18:02.690
25, -12.32, 165.42, 10.60, 4.52, 0.000, 0.000, 0.000, 11:18:02.705
26, 24.15, 185.02, 8.24, 7.62, 0.000, 0.000, 0.000, 11:18:02.705
27, 12.99, 174.26, 5.17, 9.76, 0.000, 0.000, 0.000, 11:18:02.720
28, -13.69, 159.85, 7.29, 4.70, 0.000, 0.000, 0.000, 11:18:02.721
29, -11.99, 167.00, 6.21, 5.08, 0.000, 0.000, 0.000, 11:18:02.721
30, 16.54, 187.23, 6.86, 6.13, 0.000, 0.000, 0.000, 11:18:02.721
31, 13.79, 183.14, 11.45, 7.47, 0.000, 0.000, 0.000, 11:18:02.735
32, -17.10, 165.76, 6.28, 9.18, 0.000, 0.000, 0.000, 11:18:02.735
33, -8.86, 173.96, 7.23, 6.89, 0.000, 0.000, 0.000, 11:18:02.750
34, 14.21, 189.93, 5.77, 6.85, 0.000, 0.000, 0.000, 11:18:02.750
35, 12.90, 183.34, 7.72, 7.69, 0.000, 0.000, 0.000, 11:18:02.757
36, -16.62, 163.65, 12.90, 8.48, 0.000, 0.000, 0.000, 11:18:02.757
37, -10.21, 172.67, 8.38, 3.67, 0.000, 0.000, 0.000, 11:18:02.764
38, 19.12, 190.93, 4.34, 10.18, 0.000, 0.000, 0.000, 11:18:02.764
39, 13.81, 181.85, 7.18, 9.25, 0.000, 0.000, 0.000, 11:18:02.780
40, -16.39, 168.36, 4.96, 9.62, 0.000, 0.000, 0.000, 11:18:02.780
41, -9.93, 173.83, 6.83, 7.63, 0.000, 0.000, 0.000, 11:18:02.782
42, 15.79, 190.29, 7.24, 8.13, 0.000, 0.000, 0.000, 11:18:02.782
43, 14.53, 186.98, 8.86, 5.01, 0.000, 0.000, 0.000, 11:18:02.795
44, -9.93, 168.60, 10.03, 6.27, 0.000, 0.000, 0.000, 11:18:02.796
45, -6.84, 173.30, 9.34, 6.95, 0.000, 0.000, 0.000, 11:18:02.810
46, 15.24, 191.21, 4.12, 6.93, 0.000, 0.000, 0.000, 11:18:02.810
47, 18.68, 182.39, 6.31, 6.17, 0.000, 0.000, 0.000, 11:18:02.811
48, -16.45, 168.24, 5.90, 8.88, 0.000, 0.000, 0.000, 11:18:02.811
49, -9.88, 173.91, 6.13, 6.48, 0.000, 0.000, 0.000, 11:18:02.825
50, 27.59, 192.64, 5.85, 11.75, 0.000, 0.000, 0.000, 11:18:02.825
51, 14.88, 180.05, 7.25, 9.32, 0.000, 0.000, 0.000, 11:18:02.840
52, -14.86, 163.83, 5.22, 10.45, 0.000, 0.000, 0.000, 11:18:02.840
53, -9.11, 174.27, 5.47, 8.80, 0.000, 0.000, 0.000, 11:18:02.840
54, 15.56, 188.59, 7.89, 11.00, 0.000, 0.000, 0.000, 11:18:02.840
55, 17.13, 185.44, 7.67, 12.63, 0.000, 0.000, 0.000, 11:18:02.854
56, -9.36, 167.79, 11.09, 8.87, 0.000, 0.000, 0.000, 11:18:02.855
57, -10.23, 172.74, 8.29, 7.69, 0.000, 0.000, 0.000, 11:18:02.870
58, 15.05, 189.28, 8.70, 4.33, 0.000, 0.000, 0.000, 11:18:02.870
59, 15.82, 187.60, 10.73, 4.56, 0.000, 0.000, 0.000, 11:18:02.870
60, -18.45, 167.59, 7.00, 8.01, 0.000, 0.000, 0.000, 11:18:02.870
61, -14.59, 172.35, 9.54, 8.15, 0.000, 0.000, 0.000, 11:18:02.885
62, 19.66, 188.10, 7.93, 4.02, 0.000, 0.000, 0.000, 11:18:02.885
63, 20.07, 180.56, 11.61, 5.86, 0.000, 0.000, 0.000, 11:18:02.900
64, -16.03, 164.54, 11.80, 9.33, 0.000, 0.000, 0.000, 11:18:02.900
65, -17.19, 169.01, 8.96, 8.50, 0.000, 0.000, 0.000, 11:18:02.900
66, 16.69, 184.02, 7.12, 6.86, 0.000, 0.000, 0.000, 11:18:02.900
67, 15.44, 179.90, 8.00, 3.89, 0.000, 0.000, 0.000, 11:18:02.915
68, -13.92, 164.10, 8.77, 14.43, 0.000, 0.000, 0.000, 11:18:02.915
69, -11.96, 169.36, 3.35, 13.47, 0.000, 0.000, 0.000, 11:18:02.930
70, 15.61, 189.38, 5.80, 7.40, 0.000, 0.000, 0.000, 11:18:02.930
71, 16.75, 182.18, 8.81, 12.54, 0.000, 0.000, 0.000, 11:18:02.930
72, -16.69, 163.15, 6.99, 10.45, 0.000, 0.000, 0.000, 11:18:02.931
73, -11.22, 171.48, 2.92, 4.79, 0.000, 0.000, 0.000, 11:18:02.945
74, 23.53, 189.40, 5.03, 8.89, 0.000, 0.000, 0.000, 11:18:02.945
75, 20.79, 180.17, 7.52, 7.30, 0.000, 0.000, 0.000, 11:18:02.960
76, -10.79, 164.02, 10.21, 9.45, 0.000, 0.000, 0.000, 11:18:02.960
77, -9.53, 168.53, 9.33, 8.33, 0.000, 0.000, 0.000, 11:18:02.960
78, 20.35, 186.73, 5.87, 9.87, 0.000, 0.000, 0.000, 11:18:02.960
79, 15.94, 181.17, 5.35, 9.16, 0.000, 0.000, 0.000, 11:18:02.975
80, -14.20, 163.25, 10.16, 10.39, 0.000, 0.000, 0.000, 11:18:02.975
81, -12.53, 169.49, 7.58, 6.80, 0.000, 0.000, 0.000, 11:18:02.990
82, 16.83, 191.97, 3.66, 6.59, 0.000, 0.000, 0.000, 11:18:02.990
83, 22.33, 183.09, 6.78, 5.36, 0.000, 0.000, 0.000, 11:18:02.990
84, -15.26, 165.85, 10.83, 6.45, 0.000, 0.000, 0.000, 11:18:02.990
85, -8.30, 172.98, 6.39, 6.09, 0.000, 0.000, 0.000, 11:18:03.005
86, 17.26, 190.94, 3.66, 6.62, 0.000, 0.000, 0.000, 11:18:03.005
87, 15.86, 183.33, 7.07, 11.85, 0.000, 0.000, 0.000, 11:18:03.020
88, -15.69, 166.63, 7.48, 12.73, 0.000, 0.000, 0.000, 11:18:03.020
89, -15.08, 176.08, 8.06, 8.85, 0.000, 0.000, 0.000, 11:18:03.021
90, 17.22, 192.62, 8.48, 8.13, 0.000, 0.000, 0.000, 11:18:03.021
91, 14.06, 189.00, 9.23, 6.89, 0.000, 0.000, 0.000, 11:18:03.041
92, -14.05, 169.54, 10.10, 8.42, 0.000, 0.000, 0.000, 11:18:03.042
93, -14.89, 172.27, 6.65, 8.24, 0.000, 0.000, 0.000, 11:18:03.050
94, 14.97, 193.31, 6.62, 3.18, 0.000, 0.000, 0.000, 11:18:03.050
95, 22.23, 183.90, 5.64, 7.28, 0.000, 0.000, 0.000, 11:18:03.050
96, -14.80, 169.02, 10.74, 8.88, 0.000, 0.000, 0.000, 11:18:03.050
97, -8.88, 176.64, 8.44, 5.66, 0.000, 0.000, 0.000, 11:18:03.064
98, 22.98, 191.06, 8.92, 10.19, 0.000, 0.000, 0.000, 11:18:03.065
99, 16.72, 184.72, 5.00, 7.42, 0.000, 0.000, 0.000, 11:18:03.080
100, -13.84, 170.75, 5.68, 7.05, 0.000, 0.000, 0.000, 11:18:03.080
101, -13.77, 177.16, 9.54, 10.21, 0.000, 0.000, 0.000, 11:18:03.080
102, 18.28, 192.16, 6.83, 6.92, 0.000, 0.000, 0.000, 11:18:03.080
103, 12.72, 185.64, 5.00, 11.61, 0.000, 0.000, 0.000, 11:18:03.095
104, -12.96, 171.41, 9.45, 8.01, 0.000, 0.000, 0.000, 11:18:03.095
105, -9.52, 177.04, 6.42, 6.91, 0.000, 0.000, 0.000, 11:18:03.110
106, 18.76, 198.28, 10.20, 6.44, 0.000, 0.000, 0.000, 11:18:03.111
107, 19.84, 192.60, 7.31, 8.02, 0.000, 0.000, 0.000, 11:18:03.111
108, -13.33, 171.70, 5.62, 7.59, 0.000, 0.000, 0.000, 11:18:03.111
109, -13.71, 178.12, 8.11, 6.39, 0.000, 0.000, 0.000, 11:18:03.124
110, 22.82, 195.05, 8.61, 2.96, 0.000, 0.000, 0.000, 11:18:03.125
111, 12.31, 187.17, 6.50, 9.81, 0.000, 0.000, 0.000, 11:18:03.140
112, -16.66, 169.95, 9.36, 9.43, 0.000, 0.000, 0.000, 11:18:03.140
113, -11.96, 177.75, 7.23, 10.67, 0.000, 0.000, 0.000, 11:18:03.141
114, 21.68, 196.54, 3.64, 9.82, 0.000, 0.000, 0.000, 11:18:03.141
115, 12.94, 191.42, 10.64, 6.96, 0.000, 0.000, 0.000, 11:18:03.154
116, -15.35, 175.51, 8.48, 11.83, 0.000, 0.000, 0.000, 11:18:03.155
117, -16.12, 175.03, 9.43, 7.35, 0.000, 0.000, 0.000, 11:18:03.171
118, 12.54, 191.02, 10.09, 3.70, 0.000, 0.000, 0.000, 11:18:03.171
119, 17.15, 190.81, 8.21, 5.75, 0.000, 0.000, 0.000, 11:18:03.171
120, -12.89, 172.51, 5.25, 9.86, 0.000, 0.000, 0.000, 11:18:03.171
121, -12.68, 178.67, 6.02, 8.24, 0.000, 0.000, 0.000, 11:18:03.185
122, 20.43, 197.21, 8.65, 3.31, 0.000, 0.000, 0.000, 11:18:03.185
123, 21.60, 190.43, 8.72, 11.97, 0.000, 0.000, 0.000, 11:18:03.200
124, -13.77, 172.96, 5.92, 7.15, 0.000, 0.000, 0.000, 11:18:03.200
125, -7.90, 179.39, 6.21, 8.34, 0.000, 0.000, 0.000, 11:18:03.200
126, 12.77, 200.40, 8.01, 11.65, 0.000, 0.000, 0.000, 11:18:03.200
127, 17.56, 194.30, 8.52, 9.27, 0.000, 0.000, 0.000, 11:18:03.215
128, -14.45, 175.82, 10.02, 8.14, 0.000, 0.000, 0.000, 11:18:03.215
129, -12.60, 181.71, 2.02, 9.34, 0.000, 0.000, 0.000, 11:18:03.229
130, 18.05, 201.42, 3.76, 3.38, 0.000, 0.000, 0.000, 11:18:03.229
131, 21.17, 193.94, 6.16, 9.42, 0.000, 0.000, 0.000, 11:18:03.230
132, -15.63, 176.31, 9.47, 8.45, 0.000, 0.000, 0.000, 11:18:03.230
133, -8.28, 188.12, 8.02, 9.30, 0.000, 0.000, 0.000, 11:18:03.245
134, 25.18, 204.56, 6.08, 7.00, 0.000, 0.000, 0.000, 11:18:03.245
135, 15.92, 194.99, 10.24, 4.27, 0.000, 0.000, 0.000, 11:18:03.260
136, -16.66, 175.41, 8.26, 8.11, 0.000, 0.000, 0.000, 11:18:03.261
137, -6.42, 188.37, 5.56, 8.97, 0.000, 0.000, 0.000, 11:18:03.261
138, 14.86, 197.95, 1.60, 8.64, 0.000, 0.000, 0.000, 11:18:03.261
139, 16.44, 197.52, 8.05, 6.09, 0.000, 0.000, 0.000, 11:18:03.275
140, -11.72, 180.49, 6.22, 6.89, 0.000, 0.000, 0.000, 11:18:03.275
141, -11.40, 181.43, 4.02, 6.01, 0.000, 0.000, 0.000, 11:18:03.289
142, 14.98, 198.47, 5.28, 8.79, 0.000, 0.000, 0.000, 11:18:03.289
143, 16.16, 195.93, 11.30, 7.22, 0.000, 0.000, 0.000, 11:18:03.290
144, -12.25, 175.79, 4.21, 10.48, 0.000, 0.000, 0.000, 11:18:03.290
145, -7.79, 178.45, 7.74, 8.78, 0.000, 0.000, 0.000, 11:18:03.305
146, 16.99, 198.91, 4.37, 7.08, 0.000, 0.000, 0.000, 11:18:03.305
147, 16.97, 194.61, 6.17, 7.48, 0.000, 0.000, 0.000, 11:18:03.320
148, -9.55, 180.02, 12.21, 6.84, 0.000, 0.000, 0.000, 11:18:03.320
149, -11.18, 184.90, 6.43, 5.41, 0.000, 0.000, 0.000, 11:18:03.320
150, 14.83, 197.52, 6.91, 7.10, 0.000, 0.000, 0.000, 11:18:03.321
151, 18.09, 196.00, 6.48, 10.15, 0.000, 0.000, 0.000, 11:18:03.335
152, -10.47, 181.68, 6.19, 9.42, 0.000, 0.000, 0.000, 11:18:03.335
153, -12.29, 184.92, 6.71, 6.00, 0.000, 0.000, 0.000, 11:18:03.350
154, 21.59, 200.30, 9.09, 8.19, 0.000, 0.000, 0.000, 11:18:03.350
155, 16.18, 195.10, 7.61, 9.85, 0.000, 0.000, 0.000, 11:18:03.351
156, -16.49, 177.93, 9.43, 9.51, 0.000, 0.000, 0.000, 11:18:03.351
157, -16.25, 182.32, 5.29, 6.41, 0.000, 0.000, 0.000, 11:18:03.365
158, 19.45, 200.60, 10.53, 5.02, 0.000, 0.000, 0.000, 11:18:03.365
159, 19.81, 191.47, 4.64, 6.11, 0.000, 0.000, 0.000, 11:18:03.380
160, -15.89, 172.57, 6.67, 7.75, 0.000, 0.000, 0.000, 11:18:03.380
161, -9.53, 177.35, 9.81, 4.15, 0.000, 0.000, 0.000, 11:18:03.380
162, 18.09, 194.65, 6.77, 5.66, 0.000, 0.000, 0.000, 11:18:03.380
163, 13.62, 191.91, 2.14, 7.18, 0.000, 0.000, 0.000, 11:18:03.396
164, -12.56, 175.15, 10.56, 9.58, 0.000, 0.000, 0.000, 11:18:03.396
165, -12.04, 176.49, 9.06, 8.17, 0.000, 0.000, 0.000, 11:18:03.410
166, 18.38, 196.13, 6.56, 8.19, 0.000, 0.000, 0.000, 11:18:03.410
167, 21.17, 199.07, 7.73, 6.78, 0.000, 0.000, 0.000, 11:18:03.417
168, -10.57, 175.53, 4.63, 3.80, 0.000, 0.000, 0.000, 11:18:03.418
169, -14.97, 183.45, 6.44, 9.25, 0.000, 0.000, 0.000, 11:18:03.425
170, 20.66, 199.77, 6.90, 5.87, 0.000, 0.000, 0.000, 11:18:03.425
171, 20.85, 191.52, 9.60, 4.92, 0.000, 0.000, 0.000, 11:18:03.440
172, -12.48, 174.80, 6.43, 3.27, 0.000, 0.000, 0.000, 11:18:03.440
173, -11.27, 178.69, 3.52, 5.46, 0.000, 0.000, 0.000, 11:18:03.440
174, 16.78, 198.83, 4.05, 5.21, 0.000, 0.000, 0.000, 11:18:03.440
175, 20.18, 196.09, 7.39, 6.85, 0.000, 0.000, 0.000, 11:18:03.455
176, -16.20, 175.76, 8.56, 1.74, 0.000, 0.000, 0.000, 11:18:03.455
177, -11.64, 181.44, 9.20, 4.75, 0.000, 0.000, 0.000, 11:18:03.470
178, 11.95, 195.58, 4.25, 5.87, 0.000, 0.000, 0.000, 11:18:03.470
179, 26.35, 196.20, 6.82, 9.46, 0.000, 0.000, 0.000, 11:18:03.470
180, -13.22, 175.80, 8.87, 7.81, 0.000, 0.000, 0.000, 11:18:03.470
181, -13.38, 180.86, 6.03, 3.44, 0.000, 0.000, 0.000, 11:18:03.485
182, 20.02, 197.44, 3.62, 10.13, 0.000, 0.000, 0.000, 11:18:03.485
183, 18.74, 190.86, 8.75, 4.24, 0.000, 0.000, 0.000, 11:18:03.500
184, -16.09, 171.08, 6.90, 3.72, 0.000, 0.000, 0.000, 11:18:03.500
185, -5.48, 178.16, 9.02, 1.56, 0.000, 0.000, 0.000, 11:18:03.500
186, 15.90, 194.24, 7.03, 5.16, 0.000, 0.000, 0.000, 11:18:03.500
187, 16.94, 189.82, 9.41, 8.54, 0.000, 0.000, 0.000, 11:18:03.515
188, -14.04, 174.37, 12.13, 6.88, 0.000, 0.000, 0.000, 11:18:03.515
189, -14.62, 174.27, 7.58, 7.41, 0.000, 0.000, 0.000, 11:18:03.530
190, 17.10, 192.84, 3.02, 6.61, 0.000, 0.000, 0.000, 11:18:03.530
191, 20.90, 192.16, 6.92, 6.69, 0.000, 0.000, 0.000, 11:18:03.530
192, -12.75, 174.77, 9.79, 8.40, 0.000, 0.000, 0.000, 11:18:03.530
193, -12.77, 180.34, 7.81, 11.00, 0.000, 0.000, 0.000, 11:18:03.545
194, 21.03, 194.36, 10.03, 7.62, 0.000, 0.000, 0.000, 11:18:03.545
195, 22.86, 190.91, 7.55, 6.72, 0.000, 0.000, 0.000, 11:18:03.560
196, -14.89, 170.38, 7.70, 12.05, 0.000, 0.000, 0.000, 11:18:03.560
197, -10.58, 177.61, 7.86, 6.29, 0.000, 0.000, 0.000, 11:18:03.560
198, 18.73, 194.24, 4.36, 3.72, 0.000, 0.000, 0.000, 11:18:03.560
199, 17.41, 193.15, 8.46, 6.19, 0.000, 0.000, 0.000, 11:18:03.575
200, -14.25, 175.68, 10.31, 0.81, 0.000, 0.000, 0.000, 11:18:03.575
0, -15.79, 178.15, 8.42, 6.11, 0.000, 0.000, 0.000, 11:18:03.575
1, 15.12, 195.52, 10.17, 3.97, 0.000, 0.000, 0.000, 11:18:03.590
2, 23.11, 192.70, 5.54, 7.49, 0.000, 0.000, 0.000, 11:18:03.590
3, -11.20, 171.07, 7.55, 3.83, 0.000, 0.000, 0.000, 11:18:03.605
4, -12.78, 177.48, 6.39, 8.33, 0.000, 0.000, 0.000, 11:18:03.605
5, 19.04, 198.26, 3.61, 9.89, 0.000, 0.000, 0.000, 11:18:03.605
6, 19.34, 196.64, 9.30, 7.41, 0.000, 0.000, 0.000, 11:18:03.605
7, -14.10, 175.97, 10.29, 7.89, 0.000, 0.000, 0.000, 11:18:03.620
8, -10.21, 178.57, 9.83, 4.96, 0.000, 0.000, 0.000, 11:18:03.620
9, 17.01, 199.27, 9.37, 3.89, 0.000, 0.000, 0.000, 11:18:03.635
10, 18.33, 197.55, 7.52, 13.02, 0.000, 0.000, 0.000, 11:18:03.635
11, -14.63, 180.23, 7.85, 9.45, 0.000, 0.000, 0.000, 11:18:03.635
12, -15.83, 179.19, 6.45, 5.30, 0.000, 0.000, 0.000, 11:18:03.636
13, 12.21, 197.75, 5.60, 7.24, 0.000, 0.000, 0.000, 11:18:03.650
14, 22.76, 195.36, 11.55, 9.16, 0.000, 0.000, 0.000, 11:18:03.651
15, -10.58, 175.37, 9.47, 8.41, 0.000, 0.000, 0.000, 11:18:03.665
16, -13.96, 181.25, 7.93, 8.71, 0.000, 0.000, 0.000, 11:18:03.665
17, 21.56, 198.26, 6.78, 9.35, 0.000, 0.000, 0.000, 11:18:03.667
18, 16.38, 196.66, 6.37, 6.78, 0.000, 0.000, 0.000, 11:18:03.668
19, -7.78, 176.68, 10.54, 7.49, 0.000, 0.000, 0.000, 11:18:03.680
20, -14.45, 181.92, 5.14, 3.84, 0.000, 0.000, 0.000, 11:18:03.680
21, 19.88, 200.48, 11.56, 9.76, 0.000, 0.000, 0.000, 11:18:03.694
22, 15.79, 198.60, 10.08, 9.22, 0.000, 0.000, 0.000, 11:18:03.694
23, -8.09, 179.61, 7.36, 7.63, 0.000, 0.000, 0.000, 11:18:03.702
24, -15.05, 186.00, 4.82, 4.20, 0.000, 0.000, 0.000, 11:18:03.702
25, 13.22, 200.97, 7.58, 4.95, 0.000, 0.000, 0.000, 11:18:03.710
26, 18.46, 200.05, 13.17, 6.60, 0.000, 0.000, 0.000, 11:18:03.710
27, -20.85, 179.55, 6.58, 7.79, 0.000, 0.000, 0.000, 11:18:03.725
28, -15.67, 183.46, 4.99, 2.85, 0.000, 0.000, 0.000, 11:18:03.725
29, 17.07, 202.74, 6.30, 6.93, 0.000, 0.000, 0.000, 11:18:03.726
30, 17.62, 194.99, 4.63, 10.20, 0.000, 0.000, 0.000, 11:18:03.726
31, -13.28, 177.66, 10.45, 9.23, 0.000, 0.000, 0.000, 11:18:03.740
32, -15.89, 182.40, 8.19, 10.90, 0.000, 0.000, 0.000, 11:18:03.740
33, 12.66, 199.32, 7.05, 7.93, 0.000, 0.000, 0.000, 11:18:03.755
34, 24.10, 196.21, 7.23, 10.24, 0.000, 0.000, 0.000, 11:18:03.755
35, -13.94, 181.60, 10.00, 9.02, 0.000, 0.000, 0.000, 11:18:03.770
36, -11.53, 181.96, 5.95, 7.36, 0.000, 0.000, 0.000, 11:18:03.770
37, 12.95, 202.60, 8.73, 7.81, 0.000, 0.000, 0.000, 11:18:03.770
38, 23.22, 204.89, 4.96, 9.30, 0.000, 0.000, 0.000, 11:18:03.770
39, -9.97, 182.05, 8.07, 10.61, 0.000, 0.000, 0.000, 11:18:03.815
40, -13.16, 187.18, 9.27, 6.44, 0.000, 0.000, 0.000, 11:18:03.816
41, 18.27, 203.67, 7.65, 7.71, 0.000, 0.000, 0.000, 11:18:03.816
42, 18.87, 200.76, 6.54, 6.75, 0.000, 0.000, 0.000, 11:18:03.816
43, -11.59, 180.82, 6.54, 6.83, 0.000, 0.000, 0.000, 11:18:03.816
44, -15.45, 182.44, 7.71, 4.94, 0.000, 0.000, 0.000, 11:18:03.816
45, 13.68, 200.74, 6.87, 7.36, 0.000, 0.000, 0.000, 11:18:03.817
46, 16.83, 198.81, 8.64, 9.68, 0.000, 0.000, 0.000, 11:18:03.817
47, -10.34, 181.50, 12.80, 9.04, 0.000, 0.000, 0.000, 11:18:03.818
48, -12.59, 181.10, 6.77, 5.09, 0.000, 0.000, 0.000, 11:18:03.818
49, 14.11, 200.82, 2.39, 6.98, 0.000, 0.000, 0.000, 11:18:03.829
50, 24.44, 204.36, 6.48, 8.95, 0.000, 0.000, 0.000, 11:18:03.829
51, -9.95, 182.37, 10.18, 7.10, 0.000, 0.000, 0.000, 11:18:03.845
52, -18.26, 182.21, 5.88, 10.31, 0.000, 0.000, 0.000, 11:18:03.845
53, 19.20, 203.91, 11.16, 9.01, 0.000, 0.000, 0.000, 11:18:03.860
54, 16.34, 198.89, 9.79, 6.32, 0.000, 0.000, 0.000, 11:18:03.860
55, -9.44, 183.43, 9.92, 8.56, 0.000, 0.000, 0.000, 11:18:03.860
56, -14.65, 181.15, 8.64, 8.94, 0.000, 0.000, 0.000, 11:18:03.860
57, 14.60, 202.81, 5.96, 8.44, 0.000, 0.000, 0.000, 11:18:03.875
58, 15.25, 199.10, 5.15, 7.30, 0.000, 0.000, 0.000, 11:18:03.875
59, -14.34, 182.33, 9.47, 6.36, 0.000, 0.000, 0.000, 11:18:03.875
60, -16.39, 187.78, 8.81, 9.30, 0.000, 0.000, 0.000, 11:18:03.875
61, 12.29, 206.28, 7.71, 6.46, 0.000, 0.000, 0.000, 11:18:03.905
62, 18.62, 204.12, 12.31, 2.37, 0.000, 0.000, 0.000, 11:18:03.905
63, -12.55, 182.76, 11.37, 3.21, 0.000, 0.000, 0.000, 11:18:03.905
64, -17.02, 184.59, 9.28, 5.69, 0.000, 0.000, 0.000, 11:18:03.905
65, 22.46, 203.24, 7.94, 5.13, 0.000, 0.000, 0.000, 11:18:03.906
66, 17.83, 197.80, 5.39, 6.92, 0.000, 0.000, 0.000, 11:18:03.906
67, -11.04, 178.64, 9.59, 8.77, 0.000, 0.000, 0.000, 11:18:03.920
68, -11.35, 183.94, 8.01, 6.60, 0.000, 0.000, 0.000, 11:18:03.920
69, 18.06, 201.83, 8.97, 5.94, 0.000, 0.000, 0.000, 11:18:03.934
70, 18.68, 199.67, 8.40, 4.83, 0.000, 0.000, 0.000, 11:18:03.935
71, -7.55, 181.60, 7.01, 7.64, 0.000, 0.000, 0.000, 11:18:03.935
72, -17.25, 184.53, 8.12, 7.74, 0.000, 0.000, 0.000, 11:18:03.935
73, 13.98, 201.30, 7.37, 6.95, 0.000, 0.000, 0.000, 11:18:03.950
74, 22.68, 200.51, 4.08, 4.36, 0.000, 0.000, 0.000, 11:18:03.950
75, -9.90, 177.81, 6.88, 11.53, 0.000, 0.000, 0.000, 11:18:03.965
76, -15.54, 179.71, 9.82, 12.73, 0.000, 0.000, 0.000, 11:18:03.965
77, 18.44, 196.80, 5.26, 8.32, 0.000, 0.000, 0.000, 11:18:03.966
78, 21.25, 194.65, 7.23, 7.22, 0.000, 0.000, 0.000, 11:18:03.966
79, -8.34, 178.68, 8.57, 7.51, 0.000, 0.000, 0.000, 11:18:03.980
80, -10.60, 181.54, 6.58, 9.18, 0.000, 0.000, 0.000, 11:18:03.980
81, 13.22, 197.93, 6.17, 5.74, 0.000, 0.000, 0.000, 11:18:03.994
82, 15.79, 196.49, 5.34, 10.55, 0.000, 0.000, 0.000, 11:18:03.994
83, -9.93, 179.12, 7.34, 8.32, 0.000, 0.000, 0.000, 11:18:03.995
84, -17.32, 177.56, 9.04, 7.76, 0.000, 0.000, 0.000, 11:18:03.995
85, 9.94, 198.04, 6.75, 11.83, 0.000, 0.000, 0.000, 11:18:04.010
86, 27.32, 200.53, 11.00, 7.80, 0.000, 0.000, 0.000, 11:18:04.010
87, -11.52, 181.11, 12.04, 8.77, 0.000, 0.000, 0.000, 11:18:04.025
88, -16.14, 180.59, 11.03, 9.09, 0.000, 0.000, 0.000, 11:18:04.025
89, 14.23, 202.72, 4.84, 8.66, 0.000, 0.000, 0.000, 11:18:04.025
90, 18.56, 199.34, 5.10, 7.64, 0.000, 0.000, 0.000, 11:18:04.026
91, -12.42, 180.33, 10.27, 13.04, 0.000, 0.000, 0.000, 11:18:04.040
92, -13.55, 181.22, 9.46, 12.98, 0.000, 0.000, 0.000, 11:18:04.040
93, 14.80, 203.62, 8.61, 7.56, 0.000, 0.000, 0.000, 11:18:04.055
94, 17.02, 196.67, 6.44, 7.39, 0.000, 0.000, 0.000, 11:18:04.055
95, -9.98, 178.11, 9.33, 6.94, 0.000, 0.000, 0.000, 11:18:04.055
96, -13.28, 179.29, 10.45, 4.67, 0.000, 0.000, 0.000, 11:18:04.055
97, 11.04, 196.49, 6.24, 5.18, 0.000, 0.000, 0.000, 11:18:04.070
98, 20.63, 199.52, 10.22, 7.24, 0.000, 0.000, 0.000, 11:18:04.070
99, -10.24, 178.57, 7.54, 6.06, 0.000, 0.000, 0.000, 11:18:04.085
100, -15.45, 178.09, 11.57, 4.07, 0.000, 0.000, 0.000, 11:18:04.085
101, 19.95, 197.55, 6.63, 7.11, 0.000, 0.000, 0.000, 11:18:04.085
102, 20.53, 194.29, 5.69, 4.45, 0.000, 0.000, 0.000, 11:18:04.085
103, -13.66, 177.42, 8.87, 10.17, 0.000, 0.000, 0.000, 11:18:04.100
104, -14.70, 181.21, 7.80, 5.97, 0.000, 0.000, 0.000, 11:18:04.100
105, 10.23, 197.42, 8.19, 4.15, 0.000, 0.000, 0.000, 11:18:04.115
106, 20.50, 198.05, 7.67, 10.00, 0.000, 0.000, 0.000, 11:18:04.115
107, -7.91, 180.64, 10.05, 6.05, 0.000, 0.000, 0.000, 11:18:04.116
108, -16.24, 179.67, 3.77, 5.51, 0.000, 0.000, 0.000, 11:18:04.116
109, 9.37, 197.37, 7.83, 6.04, 0.000, 0.000, 0.000, 11:18:04.130
110, 23.35, 199.01, 6.54, 10.06, 0.000, 0.000, 0.000, 11:18:04.130
111, -8.73, 177.72, 11.35, 8.70, 0.000, 0.000, 0.000, 11:18:04.145
112, -17.68, 175.67, 6.39, 10.62, 0.000, 0.000, 0.000, 11:18:04.145
113, 15.47, 193.86, 10.09, 5.05, 0.000, 0.000, 0.000, 11:18:04.145
114, 20.99, 189.69, 7.26, 8.77, 0.000, 0.000, 0.000, 11:18:04.145
115, -9.18, 171.51, 9.92, 5.13, 0.000, 0.000, 0.000, 11:18:04.159
116, -12.79, 175.43, 8.21, 6.47, 0.000, 0.000, 0.000, 11:18:04.159
117, 11.89, 192.36, 4.32, 4.74, 0.000, 0.000, 0.000, 11:18:04.175
118, 21.01, 196.07, 10.26, 10.31, 0.000, 0.000, 0.000, 11:18:04.175
119, -3.91, 175.85, 8.89, 11.33, 0.000, 0.000, 0.000, 11:18:04.183
120, -15.54, 177.51, 3.67, 5.80, 0.000, 0.000, 0.000, 11:18:04.183
121, 11.06, 197.40, 6.12, 8.31, 0.000, 0.000, 0.000, 11:18:04.189
122, 25.52, 197.29, 7.78, 11.64, 0.000, 0.000, 0.000, 11:18:04.190
123, -7.47, 176.79, 8.34, 5.45, 0.000, 0.000, 0.000, 11:18:04.205
124, -15.31, 178.15, 6.10, 8.35, 0.000, 0.000, 0.000, 11:18:04.205
125, 14.46, 196.22, 6.07, 8.10, 0.000, 0.000, 0.000, 11:18:04.205
126, 17.35, 198.41, 4.99, 7.23, 0.000, 0.000, 0.000, 11:18:04.205
127, -13.85, 179.83, 1.70, 9.55, 0.000, 0.000, 0.000, 11:18:04.220
128, -7.87, 177.03, 5.88, 5.80, 0.000, 0.000, 0.000, 11:18:04.220
129, 12.16, 195.71, 9.71, 9.33, 0.000, 0.000, 0.000, 11:18:04.235
130, 25.61, 198.43, 7.51, 11.18, 0.000, 0.000, 0.000, 11:18:04.235
131, -8.51, 179.11, 8.39, 6.25, 0.000, 0.000, 0.000, 11:18:04.236
132, -14.73, 179.68, 8.28, 3.84, 0.000, 0.000, 0.000, 11:18:04.236
133, 12.26, 197.14, 6.29, 5.86, 0.000, 0.000, 0.000, 11:18:04.251
134, 24.56, 200.63, 7.69, 7.54, 0.000, 0.000, 0.000, 11:18:04.251
135, -12.75, 181.38, 7.81, 11.38, 0.000, 0.000, 0.000, 11:18:04.265
136, -18.18, 181.16, 9.33, 8.76, 0.000, 0.000, 0.000, 11:18:04.265
137, 19.64, 197.90, 10.05, 5.60, 0.000, 0.000, 0.000, 11:18:04.265
138, 22.74, 197.71, 10.14, 5.81, 0.000, 0.000, 0.000, 11:18:04.265
139, -12.34, 181.72, 6.63, 6.25, 0.000, 0.000, 0.000, 11:18:04.280
140, -14.50, 184.17, 4.65, 12.03, 0.000, 0.000, 0.000, 11:18:04.280
141, 15.26, 199.02, 10.88, 4.30, 0.000, 0.000, 0.000, 11:18:04.294
142, 22.86, 200.10, 4.59, 5.00, 0.000, 0.000, 0.000, 11:18:04.295
143, -6.73, 182.40, 7.48, 12.43, 0.000, 0.000, 0.000, 11:18:04.295
144, -13.04, 182.71, 10.23, 4.73, 0.000, 0.000, 0.000, 11:18:04.295
145, 12.52, 200.35, 8.29, 4.38, 0.000, 0.000, 0.000, 11:18:04.309
146, 25.57, 197.75, 8.99, 7.08, 0.000, 0.000, 0.000, 11:18:04.309
147, -11.33, 179.81, 6.63, 6.59, 0.000, 0.000, 0.000, 11:18:04.325
148, -15.18, 180.40, 4.88, 8.80, 0.000, 0.000, 0.000, 11:18:04.325
149, 14.73, 202.62, 6.57, 4.33, 0.000, 0.000, 0.000, 11:18:04.325
150, 21.14, 197.89, 7.13, 10.02, 0.000, 0.000, 0.000, 11:18:04.325
151, -8.78, 181.54, 9.81, 7.89, 0.000, 0.000, 0.000, 11:18:04.340
152, -13.76, 181.19, 8.65, 4.25, 0.000, 0.000, 0.000, 11:18:04.340
153, 13.74, 198.00, 8.29, 9.24, 0.000, 0.000, 0.000, 11:18:04.355
154, 18.39, 200.79, 7.67, 12.64, 0.000, 0.000, 0.000, 11:18:04.355
155, -11.41, 183.21, 8.49, 12.49, 0.000, 0.000, 0.000, 11:18:04.355
156, -17.40, 180.36, 7.19, 7.45, 0.000, 0.000, 0.000, 11:18:04.355
157, 11.90, 200.37, 5.15, 9.50, 0.000, 0.000, 0.000, 11:18:04.370
158, 27.00, 201.54, 6.34, 11.12, 0.000, 0.000, 0.000, 11:18:04.370
159, -12.52, 181.13, 8.27, 8.74, 0.000, 0.000, 0.000, 11:18:04.384
160, -18.79, 180.54, 8.00, 7.02, 0.000, 0.000, 0.000, 11:18:04.385
161, 14.50, 200.73, 6.84, 8.01, 0.000, 0.000, 0.000, 11:18:04.385
162, 22.64, 199.46, 4.63, 4.88, 0.000, 0.000, 0.000, 11:18:04.385
163, -7.44, 181.67, 7.28, 9.52, 0.000, 0.000, 0.000, 11:18:04.400
164, -17.58, 179.96, 7.38, 7.58, 0.000, 0.000, 0.000, 11:18:04.400
165, 16.86, 197.83, 8.99, 8.18, 0.000, 0.000, 0.000, 11:18:04.415
166, 21.22, 197.39, 5.66, 7.37, 0.000, 0.000, 0.000, 11:18:04.415
167, -13.84, 183.11, 7.56, 7.30, 0.000, 0.000, 0.000, 11:18:04.415
168, -16.02, 178.70, 6.03, 8.12, 0.000, 0.000, 0.000, 11:18:04.416
169, 9.78, 196.56, 9.37, 4.90, 0.000, 0.000, 0.000, 11:18:04.430
170, 20.97, 198.11, 8.40, 6.20, 0.000, 0.000, 0.000, 11:18:04.430
171, -10.63, 178.57, 4.46, 9.96, 0.000, 0.000, 0.000, 11:18:04.460
172, -13.59, 179.03, 10.28, 8.78, 0.000, 0.000, 0.000, 11:18:04.460
173, 24.68, 199.33, 6.36, 2.80, 0.000, 0.000, 0.000, 11:18:04.460
174, 18.99, 201.81, 8.19, 5.90, 0.000, 0.000, 0.000, 11:18:04.460
175, -11.68, 178.73, 5.45, 7.88, 0.000, 0.000, 0.000, 11:18:04.460
176, -13.15, 180.60, 5.94, 4.71, 0.000, 0.000, 0.000, 11:18:04.460
177, 12.14, 195.53, 7.31, 11.14, 0.000, 0.000, 0.000, 11:18:04.461
178, 25.77, 197.72, 4.85, 7.83, 0.000, 0.000, 0.000, 11:18:04.461
179, -7.13, 182.72, 8.33, 8.07, 0.000, 0.000, 0.000, 11:18:04.475
180, -15.39, 175.87, 3.40, 5.94, 0.000, 0.000, 0.000, 11:18:04.475
181, 10.29, 196.90, 6.92, 5.77, 0.000, 0.000, 0.000, 11:18:04.505
182, 30.45, 200.10, 11.14, 6.34, 0.000, 0.000, 0.000, 11:18:04.505
183, -10.43, 176.60, 5.21, 2.20, 0.000, 0.000, 0.000, 11:18:04.506
184, -18.37, 178.95, 4.13, 7.34, 0.000, 0.000, 0.000, 11:18:04.506
185, 12.50, 197.92, 5.07, 6.98, 0.000, 0.000, 0.000, 11:18:04.506
186, 21.77, 200.63, 5.36, 7.46, 0.000, 0.000, 0.000, 11:18:04.506
187, -8.83, 180.01, 6.31, 10.69, 0.000, 0.000, 0.000, 11:18:04.520
188, -16.51, 182.71, 8.62, 4.74, 0.000, 0.000, 0.000, 11:18:04.520
189, 16.90, 201.16, 6.72, 5.61, 0.000, 0.000, 0.000, 11:18:04.535
190, 24.26, 201.37, 6.68, 8.13, 0.000, 0.000, 0.000, 11:18:04.535
191, -10.24, 182.94, 9.34, 9.84, 0.000, 0.000, 0.000, 11:18:04.535
192, -14.58, 183.39, 10.00, 10.81, 0.000, 0.000, 0.000, 11:18:04.536
193, 15.25, 202.25, 12.31, 7.48, 0.000, 0.000, 0.000, 11:18:04.550
194, 25.60, 204.57, 6.44, 12.18, 0.000, 0.000, 0.000, 11:18:04.551
195, -12.90, 182.19, 7.80, 5.95, 0.000, 0.000, 0.000, 11:18:04.565
196, -20.24, 179.29, 8.80, 5.63, 0.000, 0.000, 0.000, 11:18:04.565
197, 12.54, 199.87, 6.02, 11.60, 0.000, 0.000, 0.000, 11:18:04.565
198, 18.42, 198.90, 8.10, 5.42, 0.000, 0.000, 0.000, 11:18:04.565
199, -6.97, 181.25, 6.23, 8.92, 0.000, 0.000, 0.000, 11:18:04.580
200, -14.39, 180.20, 7.66, 8.53, 0.000, 0.000, 0.000, 11:18:04.580
0, 8.81, 197.72, 8.40, 6.44, 0.000, 0.000, 0.000, 11:18:04.580
1, 19.64, 200.98, 8.75, 9.84, 0.000, 0.000, 0.000, 11:18:04.595
2, -11.11, 183.80, 9.17, 8.41, 0.000, 0.000, 0.000, 11:18:04.595
3, -21.25, 178.45, 8.73, 7.54, 0.000, 0.000, 0.000, 11:18:04.611
4, 7.77, 199.24, 5.70, 8.24, 0.000, 0.000, 0.000, 11:18:04.611
5, 23.08, 200.71, 7.69, 7.05, 0.000, 0.000, 0.000, 11:18:04.611
6, -12.06, 180.29, 10.77, 5.81, 0.000, 0.000, 0.000, 11:18:04.611
7, -21.76, 181.96, 5.95, 5.39, 0.000, 0.000, 0.000, 11:18:04.625
8, 14.42, 200.77, 5.52, 5.43, 0.000, 0.000, 0.000, 11:18:04.625
9, 22.02, 200.33, 9.19, 9.75, 0.000, 0.000, 0.000, 11:18:04.642
10, -11.61, 182.17, 8.74, 6.05, 0.000, 0.000, 0.000, 11:18:04.642
11, -18.81, 179.48, 7.19, 7.28, 0.000, 0.000, 0.000, 11:18:04.642
12, 13.16, 197.92, 7.23, 5.49, 0.000, 0.000, 0.000, 11:18:04.642
13, 20.45, 197.91, 10.60, 2.14, 0.000, 0.000, 0.000, 11:18:04.655
14, -10.84, 177.69, 11.36, 10.65, 0.000, 0.000, 0.000, 11:18:04.655
15, -17.04, 176.50, 5.24, 7.69, 0.000, 0.000, 0.000, 11:18:04.670
16, 11.68, 197.32, 13.12, 6.62, 0.000, 0.000, 0.000, 11:18:04.670
17, 19.93, 204.08, 9.33, 11.56, 0.000, 0.000, 0.000, 11:18:04.670
18, -11.19, 181.91, 10.06, 10.52, 0.000, 0.000, 0.000, 11:18:04.671
19, -20.04, 183.77, 7.93, 8.92, 0.000, 0.000, 0.000, 11:18:04.685
20, 13.10, 202.03, 6.27, 6.14, 0.000, 0.000, 0.000, 11:18:04.685
21, 25.73, 198.79, 11.71, 8.77, 0.000, 0.000, 0.000, 11:18:04.699
22, -11.55, 184.66, 8.23, 13.16, 0.000, 0.000, 0.000, 11:18:04.699
23, -19.08, 181.41, 6.79, 6.71, 0.000, 0.000, 0.000, 11:18:04.701
24, 14.42, 204.23, 7.30, 10.29, 0.000, 0.000, 0.000, 11:18:04.701
25, 19.77, 200.37, 6.78, 10.40, 0.000, 0.000, 0.000, 11:18:04.730
26, -6.59, 184.39, 10.33, 10.08, 0.000, 0.000, 0.000, 11:18:04.730
27, -15.88, 181.53, 8.63, 4.49, 0.000, 0.000, 0.000, 11:18:04.730
28, 14.14, 201.78, 8.16, 7.72, 0.000, 0.000, 0.000, 11:18:04.730
29, 30.49, 206.15, 6.14, 8.57, 0.000, 0.000, 0.000, 11:18:04.731
30, -11.55, 187.23, 9.41, 4.36, 0.000, 0.000, 0.000, 11:18:04.731
31, -15.51, 185.74, 7.60, 7.87, 0.000, 0.000, 0.000, 11:18:04.745
32, 16.22, 204.19, 7.57, 5.16, 0.000, 0.000, 0.000, 11:18:04.745
33, 24.30, 204.11, 7.45, 5.70, 0.000, 0.000, 0.000, 11:18:04.759
34, -6.92, 187.34, 11.33, 12.40, 0.000, 0.000, 0.000, 11:18:04.759
35, -13.36, 185.69, 8.02, 9.40, 0.000, 0.000, 0.000, 11:18:04.760
36, 10.62, 202.21, 9.47, 3.64, 0.000, 0.000, 0.000, 11:18:04.760
37, 23.74, 207.52, 8.44, 8.96, 0.000, 0.000, 0.000, 11:18:04.774
38, -6.79, 183.26, 6.03, 7.19, 0.000, 0.000, 0.000, 11:18:04.774
39, -14.32, 182.94, 4.85, 2.97, 0.000, 0.000, 0.000, 11:18:04.790
40, 10.74, 201.50, 1.80, 5.11, 0.000, 0.000, 0.000, 11:18:04.790
41, 21.52, 203.45, 7.89, 5.21, 0.000, 0.000, 0.000, 11:18:04.790
42, -8.86, 184.75, 7.14, 11.13, 0.000, 0.000, 0.000, 11:18:04.790
43, -12.10, 182.72, 6.16, 4.47, 0.000, 0.000, 0.000, 11:18:04.805
44, 15.19, 203.39, 5.19, 6.85, 0.000, 0.000, 0.000, 11:18:04.805
45, 22.12, 205.34, 3.20, 5.77, 0.000, 0.000, 0.000, 11:18:04.820
46, -10.43, 188.65, 5.04, 7.37, 0.000, 0.000, 0.000, 11:18:04.820
47, -15.80, 183.92, 9.82, 6.00, 0.000, 0.000, 0.000, 11:18:04.820
48, 9.30, 202.66, 8.21, 9.66, 0.000, 0.000, 0.000, 11:18:04.820
49, 24.66, 206.69, 11.93, 8.93, 0.000, 0.000, 0.000, 11:18:04.835
50, -9.66, 184.62, 7.81, 6.48, 0.000, 0.000, 0.000, 11:18:04.835
51, -15.61, 182.73, 7.59, 6.73, 0.000, 0.000, 0.000, 11:18:04.850
52, 8.20, 200.58, 9.46, 3.04, 0.000, 0.000, 0.000, 11:18:04.850
53, 21.67, 201.42, 6.42, 6.86, 0.000, 0.000, 0.000, 11:18:04.850
54, -7.33, 185.12, 10.79, 7.71, 0.000, 0.000, 0.000, 11:18:04.851
55, -19.82, 177.19, 7.26, 9.08, 0.000, 0.000, 0.000, 11:18:04.880
56, 11.79, 196.18, 7.34, 7.00, 0.000, 0.000, 0.000, 11:18:04.880
57, 23.32, 193.97, 7.14, 12.23, 0.000, 0.000, 0.000, 11:18:04.880
58, -4.52, 176.40, 7.91, 5.19, 0.000, 0.000, 0.000, 11:18:04.881
59, -14.87, 175.82, 1.72, 9.43, 0.000, 0.000, 0.000, 11:18:04.881
60, 10.98, 193.14, 2.74, 9.29, 0.000, 0.000, 0.000, 11:18:04.881
61, 20.12, 193.55, 3.84, 4.53, 0.000, 0.000, 0.000, 11:18:04.895
62, -6.72, 175.28, 7.41, 8.61, 0.000, 0.000, 0.000, 11:18:04.895
63, -20.20, 174.11, 6.91, 6.90, 0.000, 0.000, 0.000, 11:18:04.910
64, 12.74, 192.84, 7.58, 6.38, 0.000, 0.000, 0.000, 11:18:04.910
65, 21.19, 197.40, 11.53, 5.05, 0.000, 0.000, 0.000, 11:18:04.910
66, -4.96, 177.98, 7.87, 10.47, 0.000, 0.000, 0.000, 11:18:04.910
67, -20.67, 173.54, 9.62, 8.81, 0.000, 0.000, 0.000, 11:18:04.925
68, 14.34, 196.80, 5.67, 4.41, 0.000, 0.000, 0.000, 11:18:04.925
69, 21.65, 195.29, 4.86, 7.32, 0.000, 0.000, 0.000, 11:18:04.940
70, -8.91, 179.04, 5.51, 9.33, 0.000, 0.000, 0.000, 11:18:04.940
71, -17.55, 179.57, 8.49, 4.10, 0.000, 0.000, 0.000, 11:18:04.941
72, 11.43, 194.93, 7.54, 4.42, 0.000, 0.000, 0.000, 11:18:04.941
73, 18.89, 197.20, 9.92, 7.95, 0.000, 0.000, 0.000, 11:18:04.955
74, -5.90, 183.50, 7.24, 5.79, 0.000, 0.000, 0.000, 11:18:04.955
75, -18.64, 177.27, 7.62, 3.46, 0.000, 0.000, 0.000, 11:18:04.969
76, 9.36, 192.76, 10.21, 7.71, 0.000, 0.000, 0.000, 11:18:04.969
77, 25.81, 203.47, 7.15, 6.57, 0.000, 0.000, 0.000, 11:18:04.970
78, -9.07, 178.96, 7.54, 5.33, 0.000, 0.000, 0.000, 11:18:04.970
79, -19.01, 180.08, 10.50, 6.90, 0.000, 0.000, 0.000, 11:18:04.985
80, 10.94, 199.43, 8.62, 3.98, 0.000, 0.000, 0.000, 11:18:04.985
81, 23.17, 193.70, 6.40, 6.51, 0.000, 0.000, 0.000, 11:18:05.000
82, -6.36, 175.31, 5.88, 7.94, 0.000, 0.000, 0.000, 11:18:05.000
83, -16.65, 175.91, 5.78, 4.62, 0.000, 0.000, 0.000, 11:18:05.000
84, 7.61, 188.95, 8.88, 9.18, 0.000, 0.000, 0.000, 11:18:05.000
85, 23.22, 191.00, 11.01, 12.45, 0.000, 0.000, 0.000, 11:18:05.015
86, -3.12, 171.35, 6.35, 8.34, 0.000, 0.000, 0.000, 11:18:05.015
87, -20.79, 169.33, 6.84, 7.96, 0.000, 0.000, 0.000, 11:18:05.030
88, 14.79, 190.12, 8.41, 1.08, 0.000, 0.000, 0.000, 11:18:05.030
89, 25.21, 197.47, 8.48, 5.89, 0.000, 0.000, 0.000, 11:18:05.031
90, -6.31, 174.10, 10.72, 9.20, 0.000, 0.000, 0.000, 11:18:05.031
91, -16.94, 172.87, 6.92, 9.59, 0.000, 0.000, 0.000, 11:18:05.045
92, 10.56, 189.42, 8.70, 5.52, 0.000, 0.000, 0.000, 11:18:05.045
93, 23.39, 195.54, 11.94, 12.66, 0.000, 0.000, 0.000, 11:18:05.060
94, -6.77, 179.20, 6.21, 10.84, 0.000, 0.000, 0.000, 11:18:05.060
95, -17.98, 175.20, 7.05, 6.73, 0.000, 0.000, 0.000, 11:18:05.060
96, 10.97, 192.98, 5.19, 11.55, 0.000, 0.000, 0.000, 11:18:05.060
97, 21.74, 199.31, 11.46, 8.02, 0.000, 0.000, 0.000, 11:18:05.075
98, -4.84, 178.95, 13.82, 6.31, 0.000, 0.000, 0.000, 11:18:05.075
99, -19.64, 178.98, 8.89, 7.49, 0.000, 0.000, 0.000, 11:18:05.089
100, 10.20, 194.63, 4.34, 7.05, 0.000, 0.000, 0.000, 11:18:05.090
101, 24.65, 198.97, 8.37, 5.36, 0.000, 0.000, 0.000, 11:18:05.090
102, -6.31, 181.26, 8.60, 5.47, 0.000, 0.000, 0.000, 11:18:05.090
103, -17.65, 177.82, 5.61, 8.68, 0.000, 0.000, 0.000, 11:18:05.105
104, 9.99, 195.28, 8.69, 7.60, 0.000, 0.000, 0.000, 11:18:05.105
105, 21.70, 196.22, 5.92, 3.85, 0.000, 0.000, 0.000, 11:18:05.120
106, -8.25, 174.77, 4.58, 9.45, 0.000, 0.000, 0.000, 11:18:05.120
107, -14.82, 174.09, 6.77, 6.33, 0.000, 0.000, 0.000, 11:18:05.120
108, 7.72, 191.16, 5.41, 6.85, 0.000, 0.000, 0.000, 11:18:05.120
109, 26.66, 196.82, 7.79, 7.89, 0.000, 0.000, 0.000, 11:18:05.135
110, -3.58, 181.11, 9.90, 5.47, 0.000, 0.000, 0.000, 11:18:05.136
111, -18.23, 174.56, 10.42, 6.58, 0.000, 0.000, 0.000, 11:18:05.151
112, 7.44, 191.68, 7.03, 6.29, 0.000, 0.000, 0.000, 11:18:05.152
113, 26.50, 195.52, 8.99, 5.83, 0.000, 0.000, 0.000, 11:18:05.152
114, -11.22, 176.57, 11.50, 8.35, 0.000, 0.000, 0.000, 11:18:05.152
115, -17.63, 175.25, 11.42, 9.91, 0.000, 0.000, 0.000, 11:18:05.165
116, 16.06, 193.44, 6.83, 5.77, 0.000, 0.000, 0.000, 11:18:05.165
117, 21.15, 193.19, 9.97, 5.68, 0.000, 0.000, 0.000, 11:18:05.180
118, -7.78, 177.86, 3.61, 7.62, 0.000, 0.000, 0.000, 11:18:05.180
119, -15.03, 175.59, 7.41, 9.02, 0.000, 0.000, 0.000, 11:18:05.180
120, 9.91, 194.94, 7.07, 9.96, 0.000, 0.000, 0.000, 11:18:05.180
121, 21.47, 200.86, 7.68, 11.95, 0.000, 0.000, 0.000, 11:18:05.195
122, -8.93, 176.23, 3.20, 3.74, 0.000, 0.000, 0.000, 11:18:05.195
123, -18.43, 176.18, 10.13, 4.64, 0.000, 0.000, 0.000, 11:18:05.210
124, 7.15, 191.84, 7.77, 7.82, 0.000, 0.000, 0.000, 11:18:05.210
125, 23.85, 197.76, 8.46, 8.38, 0.000, 0.000, 0.000, 11:18:05.211
126, -7.50, 174.16, 7.81, 12.05, 0.000, 0.000, 0.000, 11:18:05.211
127, -20.64, 170.83, 9.27, 5.59, 0.000, 0.000, 0.000, 11:18:05.225
128, 9.28, 189.36, 9.07, 9.79, 0.000, 0.000, 0.000, 11:18:05.225
129, 25.23, 191.43, 6.72, 7.85, 0.000, 0.000, 0.000, 11:18:05.240
130, -11.30, 172.50, 7.45, 13.50, 0.000, 0.000, 0.000, 11:18:05.240
131, -17.21, 168.16, 5.95, 5.45, 0.000, 0.000, 0.000, 11:18:05.240
132, 6.27, 189.77, 6.71, 5.84, 0.000, 0.000, 0.000, 11:18:05.240
133, 25.57, 198.39, 0.95, 7.60, 0.000, 0.000, 0.000, 11:18:05.255
134, -6.23, 181.18, 5.83, 10.17, 0.000, 0.000, 0.000, 11:18:05.255
135, -20.87, 176.93, 6.46, 4.83, 0.000, 0.000, 0.000, 11:18:05.269
136, 8.86, 192.09, 7.46, 9.00, 0.000, 0.000, 0.000, 11:18:05.270
137, 24.58, 199.25, 10.47, 10.13, 0.000, 0.000, 0.000, 11:18:05.270
138, -2.50, 184.34, 6.74, 11.02, 0.000, 0.000, 0.000, 11:18:05.270
139, -15.05, 180.81, 8.01, 7.77, 0.000, 0.000, 0.000, 11:18:05.285
140, 9.79, 198.48, 6.74, 4.81, 0.000, 0.000, 0.000, 11:18:05.286
141, 25.35, 202.06, 8.02, 7.56, 0.000, 0.000, 0.000, 11:18:05.300
142, -8.30, 181.26, 10.63, 6.03, 0.000, 0.000, 0.000, 11:18:05.300
143, -13.84, 181.56, 7.44, 9.70, 0.000, 0.000, 0.000, 11:18:05.300
144, 9.57, 199.09, 5.97, 11.98, 0.000, 0.000, 0.000, 11:18:05.300
145, 24.56, 204.72, 6.53, 7.62, 0.000, 0.000, 0.000, 11:18:05.315
146, -3.18, 184.68, 7.71, 3.24, 0.000, 0.000, 0.000, 11:18:05.315
147, -16.96, 180.24, 7.98, 11.62, 0.000, 0.000, 0.000, 11:18:05.330
148, 9.77, 197.02, 4.95, 7.26, 0.000, 0.000, 0.000, 11:18:05.330
149, 19.62, 202.00, 7.43, 7.64, 0.000, 0.000, 0.000, 11:18:05.330
150, -5.78, 186.66, 6.93, 8.28, 0.000, 0.000, 0.000, 11:18:05.330
151, -18.36, 178.59, 5.72, 11.67, 0.000, 0.000, 0.000, 11:18:05.345
152, 14.99, 198.07, 10.30, 8.14, 0.000, 0.000, 0.000, 11:18:05.345
153, 22.47, 200.88, 6.57, 6.42, 0.000, 0.000, 0.000, 11:18:05.360
154, -4.15, 184.36, 6.66, 9.99, 0.000, 0.000, 0.000, 11:18:05.360
155, -13.55, 177.44, 8.82, 2.93, 0.000, 0.000, 0.000, 11:18:05.361
156, 7.66, 196.64, 6.28, 9.10, 0.000, 0.000, 0.000, 11:18:05.361
157, 27.39, 199.64, 3.15, 9.34, 0.000, 0.000, 0.000, 11:18:05.375
158, -5.73, 181.23, 6.55, 8.99, 0.000, 0.000, 0.000, 11:18:05.375
159, -18.41, 177.51, 9.95, 6.27, 0.000, 0.000, 0.000, 11:18:05.390
160, 10.01, 192.67, 8.98, 3.95, 0.000, 0.000, 0.000, 11:18:05.390
161, 25.38, 199.53, 11.07, 3.76, 0.000, 0.000, 0.000, 11:18:05.398
162, -9.63, 181.17, 10.73, 5.88, 0.000, 0.000, 0.000, 11:18:05.398
163, -17.79, 178.59, 6.83, 8.98, 0.000, 0.000, 0.000, 11:18:05.405
164, 14.90, 193.45, 8.46, 7.17, 0.000, 0.000, 0.000, 11:18:05.405
165, 28.40, 196.79, 6.22, 6.84, 0.000, 0.000, 0.000, 11:18:05.420
166, -5.84, 179.94, 9.93, 2.88, 0.000, 0.000, 0.000, 11:18:05.420
167, -16.43, 173.33, 11.06, 9.52, 0.000, 0.000, 0.000, 11:18:05.420
168, 10.16, 190.50, 8.48, 10.51, 0.000, 0.000, 0.000, 11:18:05.420
169, 24.45, 194.03, 6.57, 9.54, 0.000, 0.000, 0.000, 11:18:05.436
170, -2.88, 182.47, 10.31, 6.01, 0.000, 0.000, 0.000, 11:18:05.436
171, -16.67, 173.38, 7.31, 4.82, 0.000, 0.000, 0.000, 11:18:05.449
172, 4.70, 192.47, 4.25, 8.75, 0.000, 0.000, 0.000, 11:18:05.449
173, 28.64, 196.46, 6.09, 9.55, 0.000, 0.000, 0.000, 11:18:05.451
174, -5.78, 176.87, 7.71, 8.12, 0.000, 0.000, 0.000, 11:18:05.452
175, -18.06, 176.29, 11.26, 10.35, 0.000, 0.000, 0.000, 11:18:05.465
176, 10.10, 194.61, 8.54, 8.53, 0.000, 0.000, 0.000, 11:18:05.465
177, 25.04, 197.57, 5.65, 10.28, 0.000, 0.000, 0.000, 11:18:05.480
178, -3.74, 177.73, 8.81, 8.22, 0.000, 0.000, 0.000, 11:18:05.480
179, -23.09, 176.19, 7.58, 6.40, 0.000, 0.000, 0.000, 11:18:05.481
180, 5.90, 189.38, 4.58, 4.38, 0.000, 0.000, 0.000, 11:18:05.481
181, 27.51, 194.89, 4.41, 8.97, 0.000, 0.000, 0.000, 11:18:05.495
182, -3.12, 181.44, 7.59, 4.45, 0.000, 0.000, 0.000, 11:18:05.495
183, -17.75, 178.43, 6.30, 3.20, 0.000, 0.000, 0.000, 11:18:05.511
184, 8.82, 190.90, 5.98, 5.68, 0.000, 0.000, 0.000, 11:18:05.511
185, 26.74, 199.24, 6.48, 6.53, 0.000, 0.000, 0.000, 11:18:05.511
186, -5.02, 182.28, 3.94, 3.13, 0.000, 0.000, 0.000, 11:18:05.511
187, -19.78, 173.89, 4.96, 3.08, 0.000, 0.000, 0.000, 11:18:05.525
188, 13.25, 192.83, 6.53, 6.34, 0.000, 0.000, 0.000, 11:18:05.525
189, 26.37, 199.36, 8.03, 6.60, 0.000, 0.000, 0.000, 11:18:05.539
190, -5.71, 180.92, 9.01, 5.91, 0.000, 0.000, 0.000, 11:18:05.539
191, -21.29, 174.36, 6.19, 4.83, 0.000, 0.000, 0.000, 11:18:05.540
192, 8.48, 191.64, 5.94, 8.17, 0.000, 0.000, 0.000, 11:18:05.540
193, 20.34, 200.43, 8.71, 10.46, 0.000, 0.000, 0.000, 11:18:05.554
194, -2.09, 181.00, 9.47, 5.22, 0.000, 0.000, 0.000, 11:18:05.554
195, -17.02, 174.58, 7.84, 6.43, 0.000, 0.000, 0.000, 11:18:05.570
196, 4.45, 191.92, 9.74, 5.23, 0.000, 0.000, 0.000, 11:18:05.570
197, 27.62, 199.28, 6.03, 9.71, 0.000, 0.000, 0.000, 11:18:05.570
198, -2.03, 178.17, 8.21, 10.06, 0.000, 0.000, 0.000, 11:18:05.570
199, -15.55, 175.03, 8.24, 10.23, 0.000, 0.000, 0.000, 11:18:05.585
200, 7.64, 189.28, 9.45, 5.72, 0.000, 0.000, 0.000, 11:18:05.585
0, 23.23, 193.91, 9.31, 5.04, 0.000, 0.000, 0.000, 11:18:05.585
1, -4.79, 178.90, 4.97, 6.38, 0.000, 0.000, 0.000, 11:18:05.600
2, -15.43, 172.22, 4.35, 3.91, 0.000, 0.000, 0.000, 11:18:05.600
3, 4.44, 184.36, 6.37, 7.16, 0.000, 0.000, 0.000, 11:18:05.615
4, 26.31, 196.60, 8.16, 5.41, 0.000, 0.000, 0.000, 11:18:05.615
5, -0.76, 178.36, 8.49, 6.48, 0.000, 0.000, 0.000, 11:18:05.615
6, -20.24, 170.40, 11.26, 10.13, 0.000, 0.000, 0.000, 11:18:05.615
7, 10.59, 192.80, 5.24, 6.19, 0.000, 0.000, 0.000, 11:18:05.630
8, 21.95, 198.43, 3.09, 6.71, 0.000, 0.000, 0.000, 11:18:05.630
9, -1.51, 177.80, 9.71, 8.72, 0.000, 0.000, 0.000, 11:18:05.646
10, -14.84, 172.02, 4.55, 9.50, 0.000, 0.000, 0.000, 11:18:05.646
11, 10.47, 192.29, 6.60, 10.79, 0.000, 0.000, 0.000, 11:18:05.647
12, 21.55, 193.93, 4.19, 12.30, 0.000, 0.000, 0.000, 11:18:05.647
13, -1.56, 175.34, 8.59, 11.35, 0.000, 0.000, 0.000, 11:18:05.660
14, -16.26, 171.37, 4.96, 8.77, 0.000, 0.000, 0.000, 11:18:05.661
15, 7.00, 188.69, 6.60, 8.62, 0.000, 0.000, 0.000, 11:18:05.675
16, 20.92, 196.42, 10.04, 8.46, 0.000, 0.000, 0.000, 11:18:05.675
17, -7.07, 176.97, 6.50, 8.47, 0.000, 0.000, 0.000, 11:18:05.675
18, -17.65, 172.85, 4.82, 7.91, 0.000, 0.000, 0.000, 11:18:05.675
19, 6.38, 194.58, 5.69, 6.08, 0.000, 0.000, 0.000, 11:18:05.690
20, 26.72, 196.38, 6.02, 10.51, 0.000, 0.000, 0.000, 11:18:05.690
21, -5.09, 173.77, 11.49, 6.48, 0.000, 0.000, 0.000, 11:18:05.705
22, -17.60, 167.00, 5.01, 8.15, 0.000, 0.000, 0.000, 11:18:05.705
23, 7.39, 187.19, 5.91, 8.89, 0.000, 0.000, 0.000, 11:18:05.705
24, 21.39, 194.55, 9.37, 6.63, 0.000, 0.000, 0.000, 11:18:05.705
25, -4.02, 172.74, 7.69, 9.84, 0.000, 0.000, 0.000, 11:18:05.720
26, -16.19, 166.32, 7.25, 7.34, 0.000, 0.000, 0.000, 11:18:05.720
27, 10.80, 187.43, 9.34, 7.07, 0.000, 0.000, 0.000, 11:18:05.735
28, 18.53, 192.82, 7.42, 4.53, 0.000, 0.000, 0.000, 11:18:05.735
29, -2.69, 174.22, 8.38, 1.62, 0.000, 0.000, 0.000, 11:18:05.735
30, -16.82, 167.57, 5.02, 8.16, 0.000, 0.000, 0.000, 11:18:05.736
31, 5.68, 185.44, 7.54, 9.43, 0.000, 0.000, 0.000, 11:18:05.750
32, 29.14, 189.81, 10.17, 7.05, 0.000, 0.000, 0.000, 11:18:05.750
33, -6.12, 171.83, 8.24, 7.38, 0.000, 0.000, 0.000, 11:18:05.765
34, -19.34, 167.04, 8.33, 8.60, 0.000, 0.000, 0.000, 11:18:05.765
35, 4.88, 181.12, 10.26, 4.69, 0.000, 0.000, 0.000, 11:18:05.765
36, 21.88, 187.14, 6.97, 11.94, 0.000, 0.000, 0.000, 11:18:05.765
37, -1.83, 173.69, 6.40, 7.92, 0.000, 0.000, 0.000, 11:18:05.780
38, -21.45, 167.43, 9.45, 7.90, 0.000, 0.000, 0.000, 11:18:05.780
39, 4.14, 184.62, 6.90, 6.37, 0.000, 0.000, 0.000, 11:18:05.795
40, 19.58, 193.21, 9.22, 3.99, 0.000, 0.000, 0.000, 11:18:05.795
41, -0.81, 173.20, 7.54, 7.99, 0.000, 0.000, 0.000, 11:18:05.796
42, -19.32, 166.82, 10.85, 7.12, 0.000, 0.000, 0.000, 11:18:05.796
43, 3.33, 187.02, 9.62, 6.03, 0.000, 0.000, 0.000, 11:18:05.810
44, 26.68, 193.38, 8.52, 7.06, 0.000, 0.000, 0.000, 11:18:05.810
45, -1.73, 172.67, 10.25, 10.26, 0.000, 0.000, 0.000, 11:18:05.825
46, -16.56, 168.47, 8.87, 9.03, 0.000, 0.000, 0.000, 11:18:05.825
47, 7.79, 181.29, 6.97, 6.28, 0.000, 0.000, 0.000, 11:18:05.825
48, 28.13, 191.91, 7.78, 7.10, 0.000, 0.000, 0.000, 11:18:05.825
49, -2.43, 174.17, 6.57, 4.73, 0.000, 0.000, 0.000, 11:18:05.839
50, -16.61, 167.09, 2.89, 6.46, 0.000, 0.000, 0.000, 11:18:05.840
51, 5.36, 182.74, 3.80, 3.88, 0.000, 0.000, 0.000, 11:18:05.855
52, 23.04, 191.02, 4.71, 4.72, 0.000, 0.000, 0.000, 11:18:05.855
53, -2.65, 174.54, 6.38, 6.69, 0.000, 0.000, 0.000, 11:18:05.855
54, -20.27, 166.30, 7.58, 7.07, 0.000, 0.000, 0.000, 11:18:05.855
55, 8.84, 187.31, 8.26, 6.64, 0.000, 0.000, 0.000, 11:18:05.870
56, 28.92, 188.31, 7.67, 8.47, 0.000, 0.000, 0.000, 11:18:05.870
57, -2.11, 174.71, 5.74, 4.32, 0.000, 0.000, 0.000, 11:18:05.885
58, -21.96, 167.03, 6.27, 13.01, 0.000, 0.000, 0.000, 11:18:05.885
59, 8.66, 185.36, 3.50, 9.24, 0.000, 0.000, 0.000, 11:18:05.892
60, 24.52, 196.01, 6.27, 4.81, 0.000, 0.000, 0.000, 11:18:05.892
61, -4.25, 177.97, 8.06, 8.56, 0.000, 0.000, 0.000, 11:18:05.899
62, -17.81, 171.97, 4.59, 7.49, 0.000, 0.000, 0.000, 11:18:05.899
63, 3.02, 181.25, 4.43, 9.24, 0.000, 0.000, 0.000, 11:18:05.914
64, 27.23, 191.41, 6.62, 11.33, 0.000, 0.000, 0.000, 11:18:05.914
65, -2.27, 170.08, 8.19, 10.93, 0.000, 0.000, 0.000, 11:18:05.915
66, -19.26, 163.84, 5.50, 9.05, 0.000, 0.000, 0.000, 11:18:05.915
67, 6.19, 182.67, 6.33, 5.42, 0.000, 0.000, 0.000, 11:18:05.930
68, 24.20, 189.11, 6.35, 5.57, 0.000, 0.000, 0.000, 11:18:05.930
69, -2.12, 168.13, 6.43, 8.85, 0.000, 0.000, 0.000, 11:18:05.946
70, -22.85, 163.47, 6.15, 12.61, 0.000, 0.000, 0.000, 11:18:05.946
71, 6.97, 180.20, 6.83, 7.65, 0.000, 0.000, 0.000, 11:18:05.946
72, 26.51, 190.36, 7.85, 7.87, 0.000, 0.000, 0.000, 11:18:05.946
73, 1.48, 168.13, 6.16, 8.37, 0.000, 0.000, 0.000, 11:18:05.961
74, -16.76, 161.26, 5.45, 8.96, 0.000, 0.000, 0.000, 11:18:05.961
75, 8.24, 178.97, 3.98, 3.48, 0.000, 0.000, 0.000, 11:18:05.974
76, 31.09, 185.95, 6.73, 6.75, 0.000, 0.000, 0.000, 11:18:05.974
77, -1.47, 166.24, 5.00, 10.23, 0.000, 0.000, 0.000, 11:18:05.975
78, -20.20, 161.39, 9.52, 6.60, 0.000, 0.000, 0.000, 11:18:05.975
79, 5.12, 181.16, 5.99, 3.58, 0.000, 0.000, 0.000, 11:18:05.990
80, 24.19, 188.26, 7.18, 6.31, 0.000, 0.000, 0.000, 11:18:05.990
81, -1.73, 166.16, 7.62, 9.67, 0.000, 0.000, 0.000, 11:18:06.005
82, -22.41, 156.78, 6.45, 7.31, 0.000, 0.000, 0.000, 11:18:06.005
83, 7.01, 174.51, 6.69, 5.98, 0.000, 0.000, 0.000, 11:18:06.006
84, 21.26, 178.88, 2.94, 6.92, 0.000, 0.000, 0.000, 11:18:06.006
85, -0.48, 166.57, 7.13, 11.73, 0.000, 0.000, 0.000, 11:18:06.020
86, -18.12, 161.47, 2.29, 6.93, 0.000, 0.000, 0.000, 11:18:06.020
87, 7.12, 176.58, 4.09, 5.37, 0.000, 0.000, 0.000, 11:18:06.035
88, 18.74, 184.57, 7.40, 10.18, 0.000, 0.000, 0.000, 11:18:06.035
89, -4.07, 163.91, 7.42, 6.26, 0.000, 0.000, 0.000, 11:18:06.035
90, -19.97, 156.28, 6.81, 4.76, 0.000, 0.000, 0.000, 11:18:06.035
91, 3.03, 176.38, 9.50, 5.20, 0.000, 0.000, 0.000, 11:18:06.050
92, 27.88, 188.64, 8.33, 8.15, 0.000, 0.000, 0.000, 11:18:06.050
93, -2.51, 166.39, 7.66, 7.92, 0.000, 0.000, 0.000, 11:18:06.065
94, -24.99, 160.68, 7.61, 8.20, 0.000, 0.000, 0.000, 11:18:06.065
95, 5.44, 179.69, 5.46, 9.22, 0.000, 0.000, 0.000, 11:18:06.065
96, 23.88, 184.31, 6.21, 5.94, 0.000, 0.000, 0.000, 11:18:06.065
97, -0.02, 169.11, 5.61, 7.83, 0.000, 0.000, 0.000, 11:18:06.080
98, -15.63, 160.44, 11.07, 7.92, 0.000, 0.000, 0.000, 11:18:06.080
99, 4.29, 175.73, 11.42, 8.19, 0.000, 0.000, 0.000, 11:18:06.095
100, 22.93, 186.36, 13.09, 7.96, 0.000, 0.000, 0.000, 11:18:06.095
101, -4.86, 163.73, 10.10, 8.50, 0.000, 0.000, 0.000, 11:18:06.095
102, -21.04, 157.53, 6.87, 4.85, 0.000, 0.000, 0.000, 11:18:06.095
103, 4.99, 175.55, 11.20, 10.38, 0.000, 0.000, 0.000, 11:18:06.125
104, 28.48, 187.63, 8.37, 5.10, 0.000, 0.000, 0.000, 11:18:06.125
105, -2.91, 170.62, 4.59, 7.01, 0.000, 0.000, 0.000, 11:18:06.125
106, -25.26, 160.76, 4.67, 12.01, 0.000, 0.000, 0.000, 11:18:06.125
107, 6.48, 182.74, 5.86, 7.18, 0.000, 0.000, 0.000, 11:18:06.126
108, 25.75, 187.29, 5.55, 5.62, 0.000, 0.000, 0.000, 11:18:06.126
109, -2.31, 163.88, 11.28, 13.21, 0.000, 0.000, 0.000, 11:18:06.140
110, -18.01, 161.60, 8.17, 5.86, 0.000, 0.000, 0.000, 11:18:06.140
111, 10.02, 174.51, 10.51, 4.61, 0.000, 0.000, 0.000, 11:18:06.155
112, 22.00, 185.30, 5.31, 7.86, 0.000, 0.000, 0.000, 11:18:06.155
113, 1.80, 166.85, 8.39, 7.37, 0.000, 0.000, 0.000, 11:18:06.170
114, -19.96, 158.35, 9.99, 7.19, 0.000, 0.000, 0.000, 11:18:06.170
115, 6.52, 177.56, 9.86, 1.27, 0.000, 0.000, 0.000, 11:18:06.170
116, 28.70, 185.86, 8.42, 10.05, 0.000, 0.000, 0.000, 11:18:06.170
117, -2.33, 162.67, 7.87, 12.15, 0.000, 0.000, 0.000, 11:18:06.185
118, -21.74, 155.25, 8.44, 8.66, 0.000, 0.000, 0.000, 11:18:06.185
119, 9.15, 172.67, 6.97, 3.58, 0.000, 0.000, 0.000, 11:18:06.185
120, 24.97, 180.90, 5.20, 8.46, 0.000, 0.000, 0.000, 11:18:06.185
121, -8.41, 164.42, 4.24, 6.43, 0.000, 0.000, 0.000, 11:18:06.215
122, -21.56, 154.52, 6.85, 3.43, 0.000, 0.000, 0.000, 11:18:06.216
123, 5.54, 170.44, 7.02, 8.05, 0.000, 0.000, 0.000, 11:18:06.216
124, 19.04, 179.31, 4.96, 8.54, 0.000, 0.000, 0.000, 11:18:06.216
125, -2.52, 170.00, 8.90, 12.91, 0.000, 0.000, 0.000, 11:18:06.230
126, -18.99, 158.01, 6.82, 10.72, 0.000, 0.000, 0.000, 11:18:06.230
127, 6.29, 177.68, 8.05, 7.44, 0.000, 0.000, 0.000, 11:18:06.231
128, 19.92, 183.92, 6.68, 10.23, 0.000, 0.000, 0.000, 11:18:06.231
129, -1.34, 164.06, 9.40, 6.67, 0.000, 0.000, 0.000, 11:18:06.245
130, -23.88, 158.58, 6.80, 5.62, 0.000, 0.000, 0.000, 11:18:06.245
131, 2.41, 176.71, 4.41, 5.52, 0.000, 0.000, 0.000, 11:18:06.246
132, 20.66, 185.99, 6.08, 5.75, 0.000, 0.000, 0.000, 11:18:06.246
133, -5.99, 165.32, 12.64, 5.89, 0.000, 0.000, 0.000, 11:18:06.260
134, -19.60, 160.25, 7.79, 5.69, 0.000, 0.000, 0.000, 11:18:06.260
135, 5.91, 172.47, 5.38, 4.73, 0.000, 0.000, 0.000, 11:18:06.274
136, 25.60, 184.07, 8.82, 9.11, 0.000, 0.000, 0.000, 11:18:06.275
137, -5.30, 166.86, 3.81, 9.07, 0.000, 0.000, 0.000, 11:18:06.275
138, -22.17, 157.30, 7.64, 11.25, 0.000, 0.000, 0.000, 11:18:06.275
139, 4.21, 176.33, 7.68, 6.20, 0.000, 0.000, 0.000, 11:18:06.305
140, 27.08, 182.15, 5.62, 10.84, 0.000, 0.000, 0.000, 11:18:06.305
141, -2.04, 164.88, 7.44, 6.59, 0.000, 0.000, 0.000, 11:18:06.305
142, -23.52, 156.62, 5.79, 3.15, 0.000, 0.000, 0.000, 11:18:06.305
143, 3.27, 177.23, 8.02, 10.73, 0.000, 0.000, 0.000, 11:18:06.306
144, 17.30, 181.70, 10.19, 7.35, 0.000, 0.000, 0.000, 11:18:06.306
145, -5.02, 166.72, 9.05, 10.27, 0.000, 0.000, 0.000, 11:18:06.320
146, -20.76, 164.04, 6.78, 7.61, 0.000, 0.000, 0.000, 11:18:06.320
147, 5.14, 175.50, 5.86, 7.18, 0.000, 0.000, 0.000, 11:18:06.335
148, 25.73, 187.70, 4.75, 8.95, 0.000, 0.000, 0.000, 11:18:06.335
149, -4.44, 164.65, 8.43, 5.89, 0.000, 0.000, 0.000, 11:18:06.335
150, -22.58, 160.07, 8.08, 7.13, 0.000, 0.000, 0.000, 11:18:06.335
151, -1.28, 178.41, 4.90, 6.97, 0.000, 0.000, 0.000, 11:18:06.350
152, 23.91, 187.91, 7.08, 5.95, 0.000, 0.000, 0.000, 11:18:06.350
153, -0.16, 169.88, 6.89, 4.56, 0.000, 0.000, 0.000, 11:18:06.365
154, -21.64, 162.93, 8.77, 5.79, 0.000, 0.000, 0.000, 11:18:06.365
155, 2.88, 180.24, 10.52, 5.81, 0.000, 0.000, 0.000, 11:18:06.372
156, 21.35, 190.47, 6.17, 1.69, 0.000, 0.000, 0.000, 11:18:06.372
157, -1.65, 173.66, 12.20, 7.24, 0.000, 0.000, 0.000, 11:18:06.380
158, -14.57, 160.32, 7.19, 8.29, 0.000, 0.000, 0.000, 11:18:06.380
159, 4.52, 178.96, 5.14, 7.94, 0.000, 0.000, 0.000, 11:18:06.395
160, 23.01, 186.30, 7.23, 7.23, 0.000, 0.000, 0.000, 11:18:06.395
161, 3.54, 170.31, 7.24, 6.28, 0.000, 0.000, 0.000, 11:18:06.395
162, -24.38, 163.86, 5.37, 10.43, 0.000, 0.000, 0.000, 11:18:06.395
163, 1.73, 182.23, 5.57, 7.79, 0.000, 0.000, 0.000, 11:18:06.410
164, 26.85, 193.21, 2.03, 8.19, 0.000, 0.000, 0.000, 11:18:06.410
165, -2.37, 172.97, 4.42, 4.54, 0.000, 0.000, 0.000, 11:18:06.425
166, -18.39, 164.34, 6.66, 5.55, 0.000, 0.000, 0.000, 11:18:06.425
167, 5.47, 183.33, 5.89, 8.08, 0.000, 0.000, 0.000, 11:18:06.425
168, 23.28, 191.77, 6.51, 10.71, 0.000, 0.000, 0.000, 11:18:06.425
169, -2.85, 175.94, 9.53, 3.19, 0.000, 0.000, 0.000, 11:18:06.440
170, -18.03, 164.36, 9.65, 5.90, 0.000, 0.000, 0.000, 11:18:06.440
171, 3.97, 177.77, 9.27, 9.88, 0.000, 0.000, 0.000, 11:18:06.470
172, 22.23, 187.60, 8.41, 8.70, 0.000, 0.000, 0.000, 11:18:06.470
173, 0.52, 174.84, 8.92, 8.66, 0.000, 0.000, 0.000, 11:18:06.470
174, -22.22, 163.23, 13.27, 9.51, 0.000, 0.000, 0.000, 11:18:06.470
175, 2.96, 183.83, 4.67, 7.61, 0.000, 0.000, 0.000, 11:18:06.471
176, 25.81, 192.56, 5.54, 8.76, 0.000, 0.000, 0.000, 11:18:06.471
177, -2.02, 176.76, 7.46, 10.33, 0.000, 0.000, 0.000, 11:18:06.471
178, -18.64, 166.03, 5.60, 9.09, 0.000, 0.000, 0.000, 11:18:06.472
179, 8.47, 184.35, 5.70, 8.00, 0.000, 0.000, 0.000, 11:18:06.485
180, 25.10, 190.10, 7.07, 5.66, 0.000, 0.000, 0.000, 11:18:06.485
181, -1.02, 173.87, 8.32, 12.24, 0.000, 0.000, 0.000, 11:18:06.514
182, -17.28, 168.13, 4.66, 6.79, 0.000, 0.000, 0.000, 11:18:06.515
