%OpenBCI Raw EEG Data
%
%Sample Rate = 200.0 Hz
%First Column = SampleIndex
%Last Column = Timestamp 
%Other Columns = EEG data in microvolts followed by Accel Data (in G) interleaved with Aux Data
0, 19.94, 0.96, 0.00, 0.00, 0.000, 0.000, 0.000, 10:28:05.358
1, 29.09, 9.35, 0.00, 0.00, 0.000, 0.000, 0.000, 10:28:05.373
2, 25.81, 2.19, 0.00, 0.00, 0.000, 0.000, 0.000, 10:28:05.373
3, 16.78, 5.30, 0.00, 0.00, 0.000, 0.000, 0.000, 10:28:05.388
4, 18.31, 4.28, 0.00, 0.00, 0.000, 0.000, 0.000, 10:28:05.388
5, 29.78, 7.94, 0.00, 0.00, 0.000, 0.000, 0.000, 10:28:05.388
6, 23.62, 5.05, 0.00, 0.00, 0.000, 0.000, 0.000, 10:28:05.389
7, 19.33, 1.31, 0.00, 0.00, 0.000, 0.000, 0.000, 10:28:05.403
8, 20.24, 7.38, 0.00, 0.00, 0.000, 0.000, 0.000, 10:28:05.403
9, 34.23, 10.53, 0.00, 0.00, 0.000, 0.000, 0.000, 10:28:05.418
10, 21.38, -1.81, 0.00, 0.00, 0.000, 0.000, 0.000, 10:28:05.419
11, 14.68, -0.85, 0.00, 0.00, 0.000, 0.000, 0.000, 10:28:05.419
12, 22.06, 2.85, 0.00, 0.00, 0.000, 0.000, 0.000, 10:28:05.419
13, 24.92, 7.17, 0.00, 0.00, 0.000, 0.000, 0.000, 10:28:05.433
14, 19.37, 3.08, 0.00, 0.00, 0.000, 0.000, 0.000, 10:28:05.433
15, 16.39, 1.09, 0.00, 0.00, 0.000, 0.000, 0.000, 10:28:05.448
16, 18.24, 7.60, 0.00, 0.00, 0.000, 0.000, 0.000, 10:28:05.448
17, 29.25, 26.76, 0.00, 0.00, 0.000, 0.000, 0.000, 10:28:05.448
18, 20.56, -2.80, 0.00, 0.00, 0.000, 0.000, 0.000, 10:28:05.448
19, 19.24, -6.37, 0.00, 0.00, 0.000, 0.000, 0.000, 10:28:05.463
20, 20.80, 6.82, 0.00, 0.00, 0.000, 0.000, 0.000, 10:28:05.463
21, 26.61, 3.04, 0.00, 0.00, 0.000, 0.000, 0.000, 10:28:05.478
22, 21.26, 4.22, 0.00, 0.00, 0.000, 0.000, 0.000, 10:28:05.478
23, 15.97, -5.01, 0.00, 0.00, 0.000, 0.000, 0.000, 10:28:05.478
24, 17.43, 1.38, 0.00, 0.00, 0.000, 0.000, 0.000, 10:28:05.478
25, 23.52, 3.02, 0.00, 0.00, 0.000, 0.000, 0.000, 10:28:05.493
26, 22.10, 4.08, 0.00, 0.00, 0.000, 0.000, 0.000, 10:28:05.494
27, 18.71, 2.31, 0.00, 0.00, 0.000, 0.000, 0.000, 10:28:05.508
28, 20.75, 8.05, 0.00, 0.00, 0.000, 0.000, 0.000, 10:28:05.508
29, 25.11, 8.62, 0.00, 0.00, 0.000, 0.000, 0.000, 10:28:05.508
30, 22.95, 6.12, 0.00, 0.00, 0.000, 0.000, 0.000, 10:28:05.508
31, 16.91, -0.34, 0.00, 0.00, 0.000, 0.000, 0.000, 10:28:05.523
32, 17.13, 5.62, 0.00, 0.00, 0.000, 0.000, 0.000, 10:28:05.523
33, 22.95, 4.57, 0.00, 0.00, 0.000, 0.000, 0.000, 10:28:05.538
34, 21.50, 3.74, 0.00, 0.00, 0.000, 0.000, 0.000, 10:28:05.538
35, 14.55, -1.07, 0.00, 0.00, 0.000, 0.000, 0.000, 10:28:05.538
36, 20.18, 9.46, 0.00, 0.00, 0.000, 0.000, 0.000, 10:28:05.539
37, 30.12, 8.36, 0.00, 0.00, 0.000, 0.000, 0.000, 10:28:05.553
38, 22.26, 5.28, 0.00, 0.00, 0.000, 0.000, 0.000, 10:28:05.553
39, 17.02, 2.45, 0.00, 0.00, 0.000, 0.000, 0.000, 10:28:05.568
40, 20.49, 6.95, 0.00, 0.00, 0.000, 0.000, 0.000, 10:28:05.568
41, 26.32, 7.95, 0.00, 0.00, 0.000, 0.000, 0.000, 10:28:05.568
42, 23.25, 0.52, 0.00, 0.00, 0.000, 0.000, 0.000, 10:28:05.568
43, 18.17, 1.71, 0.00, 0.00, 0.000, 0.000, 0.000, 10:28:05.583
44, 21.10, 6.76, 0.00, 0.00, 0.000, 0.000, 0.000, 10:28:05.583
45, 24.47, 5.98, 0.00, 0.00, 0.000, 0.000, 0.000, 10:28:05.598
46, 22.08, -7.13, 0.00, 0.00, 0.000, 0.000, 0.000, 10:28:05.598
47, 15.14, 2.13, 0.00, 0.00, 0.000, 0.000, 0.000, 10:28:05.598
48, 23.79, 1.46, 0.00, 0.00, 0.000, 0.000, 0.000, 10:28:05.598
49, 26.31, 6.93, 0.00, 0.00, 0.000, 0.000, 0.000, 10:28:05.613
50, 19.51, 4.07, 0.00, 0.00, 0.000, 0.000, 0.000, 10:28:05.613
51, 16.95, 3.16, 0.00, 0.00, 0.000, 0.000, 0.000, 10:28:05.628
52, 21.92, 6.57, 0.00, 0.00, 0.000, 0.000, 0.000, 10:28:05.628
53, 27.53, 10.48, 0.00, 0.00, 0.000, 0.000, 0.000, 10:28:05.628
54, 20.21, 0.46, 0.00, 0.00, 0.000, 0.000, 0.000, 10:28:05.628
55, 15.47, -1.43, 0.00, 0.00, 0.000, 0.000, 0.000, 10:28:05.643
56, 24.44, 9.58, 0.00, 0.00, 0.000, 0.000, 0.000, 10:28:05.643
57, 25.69, 10.27, 0.00, 0.00, 0.000, 0.000, 0.000, 10:28:05.658
58, 24.11, -5.60, 0.00, 0.00, 0.000, 0.000, 0.000, 10:28:05.659
59, 18.80, 2.70, 0.00, 0.00, 0.000, 0.000, 0.000, 10:28:05.672
60, 20.70, 4.53, 0.00, 0.00, 0.000, 0.000, 0.000, 10:28:05.672
61, 28.58, 3.38, 0.00, 0.00, 0.000, 0.000, 0.000, 10:28:05.673
62, 23.78, 4.92, 0.00, 0.00, 0.000, 0.000, 0.000, 10:28:05.673
63, 19.05, 2.67, 0.00, 0.00, 0.000, 0.000, 0.000, 10:28:05.688
64, 19.36, 3.49, 0.00, 0.00, 0.000, 0.000, 0.000, 10:28:05.688
65, 27.07, 8.30, 0.00, 0.00, 0.000, 0.000, 0.000, 10:28:05.688
66, 24.24, 5.65, 0.00, 0.00, 0.000, 0.000, 0.000, 10:28:05.688
67, 16.90, 1.91, 0.00, 0.00, 0.000, 0.000, 0.000, 10:28:05.711
68, 21.21, -0.76, 0.00, 0.00, 0.000, 0.000, 0.000, 10:28:05.711
69, 25.90, 8.26, 0.00, 0.00, 0.000, 0.000, 0.000, 10:28:05.718
70, 20.92, 2.58, 0.00, 0.00, 0.000, 0.000, 0.000, 10:28:05.718
71, 19.94, 0.72, 0.00, 0.00, 0.000, 0.000, 0.000, 10:28:05.719
72, 18.56, 6.84, 0.00, 0.00, 0.000, 0.000, 0.000, 10:28:05.719
73, 27.51, 7.25, 0.00, 0.00, 0.000, 0.000, 0.000, 10:28:05.748
74, 23.08, 6.01, 0.00, 0.00, 0.000, 0.000, 0.000, 10:28:05.748
75, 14.81, 1.80, 0.00, 0.00, 0.000, 0.000, 0.000, 10:28:05.748
76, 19.19, 7.50, 0.00, 0.00, 0.000, 0.000, 0.000, 10:28:05.748
77, 27.76, 2.66, 0.00, 0.00, 0.000, 0.000, 0.000, 10:28:05.749
78, 23.31, 4.42, 0.00, 0.00, 0.000, 0.000, 0.000, 10:28:05.749
79, 16.14, -1.43, 0.00, 0.00, 0.000, 0.000, 0.000, 10:28:05.763
80, 19.77, 6.38, 0.00, 0.00, 0.000, 0.000, 0.000, 10:28:05.763
81, 24.43, 8.37, 0.00, 0.00, 0.000, 0.000, 0.000, 10:28:05.778
82, 20.52, 2.49, 0.00, 0.00, 0.000, 0.000, 0.000, 10:28:05.778
83, 18.36, 0.57, 0.00, 0.00, 0.000, 0.000, 0.000, 10:28:05.778
84, 20.01, 6.62, 0.00, 0.00, 0.000, 0.000, 0.000, 10:28:05.778
85, 27.80, 7.26, 0.00, 0.00, 0.000, 0.000, 0.000, 10:28:05.793
86, 25.71, 3.10, 0.00, 0.00, 0.000, 0.000, 0.000, 10:28:05.793
87, 16.73, 1.53, 0.00, 0.00, 0.000, 0.000, 0.000, 10:28:05.809
88, 21.34, 4.76, 0.00, 0.00, 0.000, 0.000, 0.000, 10:28:05.809
89, 28.81, 9.81, 0.00, 0.00, 0.000, 0.000, 0.000, 10:28:05.809
90, 18.98, 7.44, 0.00, 0.00, 0.000, 0.000, 0.000, 10:28:05.809
91, 17.89, -2.46, 0.00, 0.00, 0.000, 0.000, 0.000, 10:28:05.823
92, 22.61, -0.41, 0.00, 0.00, 0.000, 0.000, 0.000, 10:28:05.823
93, 28.00, 7.88, 0.00, 0.00, 0.000, 0.000, 0.000, 10:28:05.838
94, 23.98, 5.59, 0.00, 0.00, 0.000, 0.000, 0.000, 10:28:05.839
95, 15.00, 1.87, 0.00, 0.00, 0.000, 0.000, 0.000, 10:28:05.839
96, 18.07, 2.32, 0.00, 0.00, 0.000, 0.000, 0.000, 10:28:05.839
97, 27.68, 6.26, 0.00, 0.00, 0.000, 0.000, 0.000, 10:28:05.853
98, 25.95, 8.21, 0.00, 0.00, 0.000, 0.000, 0.000, 10:28:05.853
99, 15.23, -3.81, 0.00, 0.00, 0.000, 0.000, 0.000, 10:28:05.867
100, 19.89, -0.21, 0.00, 0.00, 0.000, 0.000, 0.000, 10:28:05.868
101, 28.03, 8.67, 0.00, 0.00, 0.000, 0.000, 0.000, 10:28:05.868
102, 21.20, 2.86, 0.00, 0.00, 0.000, 0.000, 0.000, 10:28:05.868
103, 17.51, 1.18, 0.00, 0.00, 0.000, 0.000, 0.000, 10:28:05.883
104, 20.68, 4.12, 0.00, 0.00, 0.000, 0.000, 0.000, 10:28:05.883
105, 24.52, 7.68, 0.00, 0.00, 0.000, 0.000, 0.000, 10:28:05.898
106, 25.30, 13.18, 0.00, 0.00, 0.000, 0.000, 0.000, 10:28:05.899
107, 18.97, -1.09, 0.00, 0.00, 0.000, 0.000, 0.000, 10:28:05.899
108, 18.91, 3.85, 0.00, 0.00, 0.000, 0.000, 0.000, 10:28:05.899
109, 25.95, 5.72, 0.00, 0.00, 0.000, 0.000, 0.000, 10:28:05.913
110, 24.57, 2.69, 0.00, 0.00, 0.000, 0.000, 0.000, 10:28:05.914
111, 18.02, 1.99, 0.00, 0.00, 0.000, 0.000, 0.000, 10:28:05.928
112, 22.11, 4.28, 0.00, 0.00, 0.000, 0.000, 0.000, 10:28:05.928
113, 28.44, 8.16, 0.00, 0.00, 0.000, 0.000, 0.000, 10:28:05.928
114, 24.71, 3.33, 0.00, 0.00, 0.000, 0.000, 0.000, 10:28:05.928
115, 15.66, 4.18, 0.00, 0.00, 0.000, 0.000, 0.000, 10:28:05.943
116, 22.05, -4.01, 0.00, 0.00, 0.000, 0.000, 0.000, 10:28:05.943
117, 30.83, 12.46, 0.00, 0.00, 0.000, 0.000, 0.000, 10:28:05.958
118, 24.76, 3.67, 0.00, 0.00, 0.000, 0.000, 0.000, 10:28:05.958
119, 18.49, -9.56, 0.00, 0.00, 0.000, 0.000, 0.000, 10:28:05.958
120, 20.76, 3.50, 0.00, 0.00, 0.000, 0.000, 0.000, 10:28:05.958
121, 23.17, 4.00, 0.00, 0.00, 0.000, 0.000, 0.000, 10:28:05.973
122, 22.88, 4.74, 0.00, 0.00, 0.000, 0.000, 0.000, 10:28:05.973
123, 17.31, 0.82, 0.00, 0.00, 0.000, 0.000, 0.000, 10:28:05.988
124, 19.81, 7.52, 0.00, 0.00, 0.000, 0.000, 0.000, 10:28:05.989
125, 29.22, 10.36, 0.00, 0.00, 0.000, 0.000, 0.000, 10:28:05.989
126, 22.68, 4.25, 0.00, 0.00, 0.000, 0.000, 0.000, 10:28:05.989
127, 15.88, 0.57, 0.00, 0.00, 0.000, 0.000, 0.000, 10:28:06.002
128, 17.16, 5.02, 0.00, 0.00, 0.000, 0.000, 0.000, 10:28:06.003
129, 21.36, 5.77, 0.00, 0.00, 0.000, 0.000, 0.000, 10:28:06.018
130, 19.50, 4.76, 0.00, 0.00, 0.000, 0.000, 0.000, 10:28:06.018
131, 17.28, 5.35, 0.00, 0.00, 0.000, 0.000, 0.000, 10:28:06.019
132, 22.09, 4.93, 0.00, 0.00, 0.000, 0.000, 0.000, 10:28:06.019
133, 25.34, 6.94, 0.00, 0.00, 0.000, 0.000, 0.000, 10:28:06.033
134, 24.23, 12.64, 0.00, 0.00, 0.000, 0.000, 0.000, 10:28:06.033
135, 13.17, 0.59, 0.00, 0.00, 0.000, 0.000, 0.000, 10:28:06.048
136, 19.79, -15.97, 0.00, 0.00, 0.000, 0.000, 0.000, 10:28:06.048
137, 26.72, 3.71, 0.00, 0.00, 0.000, 0.000, 0.000, 10:28:06.048
138, 26.15, 12.16, 0.00, 0.00, 0.000, 0.000, 0.000, 10:28:06.048
139, 17.29, -0.10, 0.00, 0.00, 0.000, 0.000, 0.000, 10:28:06.064
140, 21.86, 9.03, 0.00, 0.00, 0.000, 0.000, 0.000, 10:28:06.064
141, 29.35, 8.63, 0.00, 0.00, 0.000, 0.000, 0.000, 10:28:06.078
142, 22.58, 8.46, 0.00, 0.00, 0.000, 0.000, 0.000, 10:28:06.078
143, 16.45, -0.75, 0.00, 0.00, 0.000, 0.000, 0.000, 10:28:06.078
144, 23.16, 1.75, 0.00, 0.00, 0.000, 0.000, 0.000, 10:28:06.078
145, 26.66, 5.00, 0.00, 0.00, 0.000, 0.000, 0.000, 10:28:06.093
146, 24.15, 2.65, 0.00, 0.00, 0.000, 0.000, 0.000, 10:28:06.093
147, 19.23, 3.57, 0.00, 0.00, 0.000, 0.000, 0.000, 10:28:06.108
148, 20.52, 6.29, 0.00, 0.00, 0.000, 0.000, 0.000, 10:28:06.108
149, 30.21, 5.53, 0.00, 0.00, 0.000, 0.000, 0.000, 10:28:06.108
150, 24.82, 5.31, 0.00, 0.00, 0.000, 0.000, 0.000, 10:28:06.108
151, 17.09, 1.96, 0.00, 0.00, 0.000, 0.000, 0.000, 10:28:06.123
152, 22.38, 6.36, 0.00, 0.00, 0.000, 0.000, 0.000, 10:28:06.123
153, 26.74, 10.00, 0.00, 0.00, 0.000, 0.000, 0.000, 10:28:06.137
154, 25.18, 6.50, 0.00, 0.00, 0.000, 0.000, 0.000, 10:28:06.137
155, 15.63, 3.75, 0.00, 0.00, 0.000, 0.000, 0.000, 10:28:06.147
156, 16.86, 4.49, 0.00, 0.00, 0.000, 0.000, 0.000, 10:28:06.147
157, 27.47, 5.77, 0.00, 0.00, 0.000, 0.000, 0.000, 10:28:06.153
158, 22.92, 8.52, 0.00, 0.00, 0.000, 0.000, 0.000, 10:28:06.153
159, 19.77, -9.97, 0.00, 0.00, 0.000, 0.000, 0.000, 10:28:06.168
160, 21.70, 3.72, 0.00, 0.00, 0.000, 0.000, 0.000, 10:28:06.168
161, 26.74, 23.43, 0.00, 0.00, 0.000, 0.000, 0.000, 10:28:06.168
162, 27.48, -2.92, 0.00, 0.00, 0.000, 0.000, 0.000, 10:28:06.168
163, 19.43, -0.82, 0.00, 0.00, 0.000, 0.000, 0.000, 10:28:06.183
164, 20.10, 7.30, 0.00, 0.00, 0.000, 0.000, 0.000, 10:28:06.183
165, 29.35, 4.42, 0.00, 0.00, 0.000, 0.000, 0.000, 10:28:06.198
166, 25.35, 4.09, 0.00, 0.00, 0.000, 0.000, 0.000, 10:28:06.198
167, 23.24, 1.48, 0.00, 0.00, 0.000, 0.000, 0.000, 10:28:06.198
168, 20.39, 4.32, 0.00, 0.00, 0.000, 0.000, 0.000, 10:28:06.199
169, 28.27, 9.53, 0.00, 0.00, 0.000, 0.000, 0.000, 10:28:06.213
170, 21.00, 5.67, 0.00, 0.00, 0.000, 0.000, 0.000, 10:28:06.213
171, 16.55, 0.85, 0.00, 0.00, 0.000, 0.000, 0.000, 10:28:06.228
172, 24.03, 6.61, 0.00, 0.00, 0.000, 0.000, 0.000, 10:28:06.228
173, 28.10, 7.80, 0.00, 0.00, 0.000, 0.000, 0.000, 10:28:06.228
174, 23.87, 6.97, 0.00, 0.00, 0.000, 0.000, 0.000, 10:28:06.228
175, 17.80, 2.53, 0.00, 0.00, 0.000, 0.000, 0.000, 10:28:06.243
176, 21.08, 1.28, 0.00, 0.00, 0.000, 0.000, 0.000, 10:28:06.243
177, 27.16, 9.76, 0.00, 0.00, 0.000, 0.000, 0.000, 10:28:06.258
178, 25.68, 5.92, 0.00, 0.00, 0.000, 0.000, 0.000, 10:28:06.258
179, 16.52, 5.15, 0.00, 0.00, 0.000, 0.000, 0.000, 10:28:06.259
180, 21.61, 2.76, 0.00, 0.00, 0.000, 0.000, 0.000, 10:28:06.259
181, 32.04, 9.93, 0.00, 0.00, 0.000, 0.000, 0.000, 10:28:06.272
182, 20.77, 6.85, 0.00, 0.00, 0.000, 0.000, 0.000, 10:28:06.273
183, 15.89, 2.32, 0.00, 0.00, 0.000, 0.000, 0.000, 10:28:06.304
184, 18.73, 3.88, 0.00, 0.00, 0.000, 0.000, 0.000, 10:28:06.304
185, 26.09, 23.42, 0.00, 0.00, 0.000, 0.000, 0.000, 10:28:06.304
186, 27.42, -5.25, 0.00, 0.00, 0.000, 0.000, 0.000, 10:28:06.304
187, 19.10, -4.57, 0.00, 0.00, 0.000, 0.000, 0.000, 10:28:06.304
188, 19.01, 1.01, 0.00, 0.00, 0.000, 0.000, 0.000, 10:28:06.304
189, 27.67, 5.10, 0.00, 0.00, 0.000, 0.000, 0.000, 10:28:06.305
190, 24.48, 3.85, 0.00, 0.00, 0.000, 0.000, 0.000, 10:28:06.305
191, 17.33, 1.14, 0.00, 0.00, 0.000, 0.000, 0.000, 10:28:06.318
192, 18.65, 1.53, 0.00, 0.00, 0.000, 0.000, 0.000, 10:28:06.318
193, 29.78, 4.93, 0.00, 0.00, 0.000, 0.000, 0.000, 10:28:06.333
194, 20.90, 0.35, 0.00, 0.00, 0.000, 0.000, 0.000, 10:28:06.333
195, 19.95, -2.52, 0.00, 0.00, 0.000, 0.000, 0.000, 10:28:06.348
196, 23.07, 2.79, 0.00, 0.00, 0.000, 0.000, 0.000, 10:28:06.349
197, 31.68, 8.72, 0.00, 0.00, 0.000, 0.000, 0.000, 10:28:06.349
198, 27.12, 3.30, 0.00, 0.00, 0.000, 0.000, 0.000, 10:28:06.349
199, 20.34, 1.69, 0.00, 0.00, 0.000, 0.000, 0.000, 10:28:06.363
200, 21.91, -1.21, 0.00, 0.00, 0.000, 0.000, 0.000, 10:28:06.363
0, 27.26, 12.70, 0.00, 0.00, 0.000, 0.000, 0.000, 10:28:06.364
1, 26.46, 3.75, 0.00, 0.00, 0.000, 0.000, 0.000, 10:28:06.379
2, 18.97, 3.33, 0.00, 0.00, 0.000, 0.000, 0.000, 10:28:06.379
3, 18.20, 2.74, 0.00, 0.00, 0.000, 0.000, 0.000, 10:28:06.393
4, 26.82, 21.07, 0.00, 0.00, 0.000, 0.000, 0.000, 10:28:06.393
5, 27.71, -0.29, 0.00, 0.00, 0.000, 0.000, 0.000, 10:28:06.393
6, 22.29, -5.16, 0.00, 0.00, 0.000, 0.000, 0.000, 10:28:06.393
7, 21.47, 1.74, 0.00, 0.00, 0.000, 0.000, 0.000, 10:28:06.415
8, 28.96, 11.37, 0.00, 0.00, 0.000, 0.000, 0.000, 10:28:06.415
9, 25.89, 7.40, 0.00, 0.00, 0.000, 0.000, 0.000, 10:28:06.423
10, 20.56, -1.25, 0.00, 0.00, 0.000, 0.000, 0.000, 10:28:06.423
11, 24.37, 6.42, 0.00, 0.00, 0.000, 0.000, 0.000, 10:28:06.423
12, 31.93, 7.47, 0.00, 0.00, 0.000, 0.000, 0.000, 10:28:06.423
13, 27.99, 2.54, 0.00, 0.00, 0.000, 0.000, 0.000, 10:28:06.438
14, 17.18, 1.34, 0.00, 0.00, 0.000, 0.000, 0.000, 10:28:06.438
15, 21.35, 3.29, 0.00, 0.00, 0.000, 0.000, 0.000, 10:28:06.453
16, 31.45, 10.72, 0.00, 0.00, 0.000, 0.000, 0.000, 10:28:06.453
17, 30.58, 7.43, 0.00, 0.00, 0.000, 0.000, 0.000, 10:28:06.453
18, 19.67, 3.91, 0.00, 0.00, 0.000, 0.000, 0.000, 10:28:06.453
19, 20.43, -0.70, 0.00, 0.00, 0.000, 0.000, 0.000, 10:28:06.468
20, 29.98, 11.87, 0.00, 0.00, 0.000, 0.000, 0.000, 10:28:06.468
21, 29.09, 3.45, 0.00, 0.00, 0.000, 0.000, 0.000, 10:28:06.483
22, 16.87, 0.62, 0.00, 0.00, 0.000, 0.000, 0.000, 10:28:06.484
23, 22.76, 2.74, 0.00, 0.00, 0.000, 0.000, 0.000, 10:28:06.484
24, 28.22, 10.10, 0.00, 0.00, 0.000, 0.000, 0.000, 10:28:06.484
25, 27.47, 4.50, 0.00, 0.00, 0.000, 0.000, 0.000, 10:28:06.498
26, 17.43, -1.73, 0.00, 0.00, 0.000, 0.000, 0.000, 10:28:06.498
27, 19.28, 1.53, 0.00, 0.00, 0.000, 0.000, 0.000, 10:28:06.513
28, 30.43, 12.34, 0.00, 0.00, 0.000, 0.000, 0.000, 10:28:06.513
29, 24.77, 13.00, 0.00, 0.00, 0.000, 0.000, 0.000, 10:28:06.513
30, 21.61, -12.67, 0.00, 0.00, 0.000, 0.000, 0.000, 10:28:06.514
31, 24.31, 5.75, 0.00, 0.00, 0.000, 0.000, 0.000, 10:28:06.528
32, 31.02, 9.48, 0.00, 0.00, 0.000, 0.000, 0.000, 10:28:06.528
33, 30.62, 7.65, 0.00, 0.00, 0.000, 0.000, 0.000, 10:28:06.543
34, 16.92, 3.09, 0.00, 0.00, 0.000, 0.000, 0.000, 10:28:06.543
35, 23.87, -1.87, 0.00, 0.00, 0.000, 0.000, 0.000, 10:28:06.543
36, 31.38, 4.92, 0.00, 0.00, 0.000, 0.000, 0.000, 10:28:06.543
37, 26.73, 2.83, 0.00, 0.00, 0.000, 0.000, 0.000, 10:28:06.558
38, 20.05, 0.49, 0.00, 0.00, 0.000, 0.000, 0.000, 10:28:06.558
39, 26.33, 3.52, 0.00, 0.00, 0.000, 0.000, 0.000, 10:28:06.573
40, 31.48, 7.55, 0.00, 0.00, 0.000, 0.000, 0.000, 10:28:06.573
41, 30.17, 9.90, 0.00, 0.00, 0.000, 0.000, 0.000, 10:28:06.574
42, 19.75, -12.36, 0.00, 0.00, 0.000, 0.000, 0.000, 10:28:06.574
43, 24.26, 1.76, 0.00, 0.00, 0.000, 0.000, 0.000, 10:28:06.589
44, 30.67, 10.39, 0.00, 0.00, 0.000, 0.000, 0.000, 10:28:06.589
45, 24.20, 7.93, 0.00, 0.00, 0.000, 0.000, 0.000, 10:28:06.603
46, 20.21, 2.08, 0.00, 0.00, 0.000, 0.000, 0.000, 10:28:06.603
47, 21.78, 3.51, 0.00, 0.00, 0.000, 0.000, 0.000, 10:28:06.603
48, 34.96, 8.21, 0.00, 0.00, 0.000, 0.000, 0.000, 10:28:06.603
49, 29.96, 5.62, 0.00, 0.00, 0.000, 0.000, 0.000, 10:28:06.618
50, 19.31, -1.66, 0.00, 0.00, 0.000, 0.000, 0.000, 10:28:06.618
51, 19.89, 7.29, 0.00, 0.00, 0.000, 0.000, 0.000, 10:28:06.632
52, 34.14, 0.66, 0.00, 0.00, 0.000, 0.000, 0.000, 10:28:06.632
53, 30.48, 7.14, 0.00, 0.00, 0.000, 0.000, 0.000, 10:28:06.633
54, 20.07, -2.43, 0.00, 0.00, 0.000, 0.000, 0.000, 10:28:06.634
55, 23.72, 6.09, 0.00, 0.00, 0.000, 0.000, 0.000, 10:28:06.648
56, 31.93, 10.18, 0.00, 0.00, 0.000, 0.000, 0.000, 10:28:06.649
57, 28.69, 4.21, 0.00, 0.00, 0.000, 0.000, 0.000, 10:28:06.663
58, 20.34, -2.53, 0.00, 0.00, 0.000, 0.000, 0.000, 10:28:06.663
59, 22.99, -2.61, 0.00, 0.00, 0.000, 0.000, 0.000, 10:28:06.664
60, 28.02, 7.71, 0.00, 0.00, 0.000, 0.000, 0.000, 10:28:06.664
61, 28.01, 7.89, 0.00, 0.00, 0.000, 0.000, 0.000, 10:28:06.678
62, 17.82, 0.06, 0.00, 0.00, 0.000, 0.000, 0.000, 10:28:06.678
63, 21.03, 7.13, 0.00, 0.00, 0.000, 0.000, 0.000, 10:28:06.693
64, 28.92, 5.40, 0.00, 0.00, 0.000, 0.000, 0.000, 10:28:06.693
65, 29.88, 8.95, 0.00, 0.00, 0.000, 0.000, 0.000, 10:28:06.693
66, 17.20, 0.58, 0.00, 0.00, 0.000, 0.000, 0.000, 10:28:06.694
67, 18.88, 4.89, 0.00, 0.00, 0.000, 0.000, 0.000, 10:28:06.708
68, 35.75, 12.94, 0.00, 0.00, 0.000, 0.000, 0.000, 10:28:06.708
69, 31.39, 5.74, 0.00, 0.00, 0.000, 0.000, 0.000, 10:28:06.722
70, 18.95, -1.18, 0.00, 0.00, 0.000, 0.000, 0.000, 10:28:06.723
71, 19.69, 5.02, 0.00, 0.00, 0.000, 0.000, 0.000, 10:28:06.723
72, 29.77, 10.45, 0.00, 0.00, 0.000, 0.000, 0.000, 10:28:06.723
73, 30.40, 5.02, 0.00, 0.00, 0.000, 0.000, 0.000, 10:28:06.739
74, 17.25, -1.38, 0.00, 0.00, 0.000, 0.000, 0.000, 10:28:06.739
75, 20.09, 3.41, 0.00, 0.00, 0.000, 0.000, 0.000, 10:28:06.753
76, 28.30, 14.72, 0.00, 0.00, 0.000, 0.000, 0.000, 10:28:06.753
77, 32.46, -1.90, 0.00, 0.00, 0.000, 0.000, 0.000, 10:28:06.754
78, 20.27, -2.74, 0.00, 0.00, 0.000, 0.000, 0.000, 10:28:06.754
79, 23.64, 3.35, 0.00, 0.00, 0.000, 0.000, 0.000, 10:28:06.769
80, 32.83, 9.87, 0.00, 0.00, 0.000, 0.000, 0.000, 10:28:06.769
81, 28.30, 5.99, 0.00, 0.00, 0.000, 0.000, 0.000, 10:28:06.783
82, 20.13, -7.62, 0.00, 0.00, 0.000, 0.000, 0.000, 10:28:06.783
83, 21.02, 2.42, 0.00, 0.00, 0.000, 0.000, 0.000, 10:28:06.783
84, 32.53, 2.59, 0.00, 0.00, 0.000, 0.000, 0.000, 10:28:06.783
85, 33.46, 6.67, 0.00, 0.00, 0.000, 0.000, 0.000, 10:28:06.797
86, 20.95, -1.07, 0.00, 0.00, 0.000, 0.000, 0.000, 10:28:06.797
87, 20.07, 2.25, 0.00, 0.00, 0.000, 0.000, 0.000, 10:28:06.813
88, 34.86, 4.53, 0.00, 0.00, 0.000, 0.000, 0.000, 10:28:06.813
89, 28.74, 12.59, 0.00, 0.00, 0.000, 0.000, 0.000, 10:28:06.813
90, 18.99, -2.25, 0.00, 0.00, 0.000, 0.000, 0.000, 10:28:06.813
91, 20.77, 0.94, 0.00, 0.00, 0.000, 0.000, 0.000, 10:28:06.828
92, 30.73, 13.51, 0.00, 0.00, 0.000, 0.000, 0.000, 10:28:06.828
93, 27.28, 2.41, 0.00, 0.00, 0.000, 0.000, 0.000, 10:28:06.844
94, 19.81, -1.04, 0.00, 0.00, 0.000, 0.000, 0.000, 10:28:06.844
95, 22.43, 9.50, 0.00, 0.00, 0.000, 0.000, 0.000, 10:28:06.844
96, 30.56, 5.00, 0.00, 0.00, 0.000, 0.000, 0.000, 10:28:06.844
97, 31.85, 5.50, 0.00, 0.00, 0.000, 0.000, 0.000, 10:28:06.865
98, 22.47, -6.38, 0.00, 0.00, 0.000, 0.000, 0.000, 10:28:06.865
99, 20.04, -3.67, 0.00, 0.00, 0.000, 0.000, 0.000, 10:28:06.873
100, 27.76, 13.04, 0.00, 0.00, 0.000, 0.000, 0.000, 10:28:06.873
101, 31.72, 1.46, 0.00, 0.00, 0.000, 0.000, 0.000, 10:28:06.873
102, 22.39, -2.39, 0.00, 0.00, 0.000, 0.000, 0.000, 10:28:06.873
103, 21.87, 1.82, 0.00, 0.00, 0.000, 0.000, 0.000, 10:28:06.888
104, 29.75, 10.66, 0.00, 0.00, 0.000, 0.000, 0.000, 10:28:06.888
105, 28.89, 9.51, 0.00, 0.00, 0.000, 0.000, 0.000, 10:28:06.902
106, 21.00, -1.37, 0.00, 0.00, 0.000, 0.000, 0.000, 10:28:06.902
107, 20.95, 1.96, 0.00, 0.00, 0.000, 0.000, 0.000, 10:28:06.903
108, 29.54, 7.78, 0.00, 0.00, 0.000, 0.000, 0.000, 10:28:06.903
109, 30.38, 5.72, 0.00, 0.00, 0.000, 0.000, 0.000, 10:28:06.919
110, 20.51, -2.63, 0.00, 0.00, 0.000, 0.000, 0.000, 10:28:06.919
111, 23.84, 1.89, 0.00, 0.00, 0.000, 0.000, 0.000, 10:28:06.933
112, 29.65, 7.11, 0.00, 0.00, 0.000, 0.000, 0.000, 10:28:06.933
113, 30.88, 6.47, 0.00, 0.00, 0.000, 0.000, 0.000, 10:28:06.933
114, 20.79, 0.63, 0.00, 0.00, 0.000, 0.000, 0.000, 10:28:06.933
115, 20.85, 9.33, 0.00, 0.00, 0.000, 0.000, 0.000, 10:28:06.948
116, 33.52, -2.61, 0.00, 0.00, 0.000, 0.000, 0.000, 10:28:06.948
117, 30.42, 9.44, 0.00, 0.00, 0.000, 0.000, 0.000, 10:28:06.963
118, 21.88, 2.99, 0.00, 0.00, 0.000, 0.000, 0.000, 10:28:06.963
119, 25.22, 3.23, 0.00, 0.00, 0.000, 0.000, 0.000, 10:28:06.963
120, 30.23, 7.79, 0.00, 0.00, 0.000, 0.000, 0.000, 10:28:06.963
121, 28.80, 9.46, 0.00, 0.00, 0.000, 0.000, 0.000, 10:28:06.977
122, 21.39, -2.98, 0.00, 0.00, 0.000, 0.000, 0.000, 10:28:06.977
123, 21.11, -1.69, 0.00, 0.00, 0.000, 0.000, 0.000, 10:28:06.994
124, 29.40, 9.54, 0.00, 0.00, 0.000, 0.000, 0.000, 10:28:06.994
125, 35.05, 8.10, 0.00, 0.00, 0.000, 0.000, 0.000, 10:28:06.994
126, 25.45, 2.33, 0.00, 0.00, 0.000, 0.000, 0.000, 10:28:06.994
127, 19.67, 3.46, 0.00, 0.00, 0.000, 0.000, 0.000, 10:28:07.008
128, 31.41, 8.87, 0.00, 0.00, 0.000, 0.000, 0.000, 10:28:07.008
129, 30.44, 5.90, 0.00, 0.00, 0.000, 0.000, 0.000, 10:28:07.023
130, 21.76, -1.99, 0.00, 0.00, 0.000, 0.000, 0.000, 10:28:07.023
131, 24.32, 1.42, 0.00, 0.00, 0.000, 0.000, 0.000, 10:28:07.023
132, 32.67, 31.92, 0.00, 0.00, 0.000, 0.000, 0.000, 10:28:07.023
133, 35.47, 5.46, 0.00, 0.00, 0.000, 0.000, 0.000, 10:28:07.038
134, 21.48, -14.68, 0.00, 0.00, 0.000, 0.000, 0.000, 10:28:07.038
135, 25.04, -0.69, 0.00, 0.00, 0.000, 0.000, 0.000, 10:28:07.053
136, 31.02, 7.29, 0.00, 0.00, 0.000, 0.000, 0.000, 10:28:07.053
137, 31.76, 6.80, 0.00, 0.00, 0.000, 0.000, 0.000, 10:28:07.053
138, 23.26, -1.13, 0.00, 0.00, 0.000, 0.000, 0.000, 10:28:07.053
139, 23.78, 2.03, 0.00, 0.00, 0.000, 0.000, 0.000, 10:28:07.067
140, 33.38, 5.11, 0.00, 0.00, 0.000, 0.000, 0.000, 10:28:07.068
141, 36.59, 4.89, 0.00, 0.00, 0.000, 0.000, 0.000, 10:28:07.083
142, 23.79, 3.76, 0.00, 0.00, 0.000, 0.000, 0.000, 10:28:07.083
143, 22.47, 6.47, 0.00, 0.00, 0.000, 0.000, 0.000, 10:28:07.083
144, 32.86, 9.07, 0.00, 0.00, 0.000, 0.000, 0.000, 10:28:07.083
145, 33.67, 5.96, 0.00, 0.00, 0.000, 0.000, 0.000, 10:28:07.098
146, 23.34, -0.75, 0.00, 0.00, 0.000, 0.000, 0.000, 10:28:07.099
147, 22.35, -1.86, 0.00, 0.00, 0.000, 0.000, 0.000, 10:28:07.113
148, 33.63, 7.20, 0.00, 0.00, 0.000, 0.000, 0.000, 10:28:07.113
149, 34.09, 11.60, 0.00, 0.00, 0.000, 0.000, 0.000, 10:28:07.113
150, 17.07, -1.45, 0.00, 0.00, 0.000, 0.000, 0.000, 10:28:07.113
151, 22.94, 4.54, 0.00, 0.00, 0.000, 0.000, 0.000, 10:28:07.128
152, 31.78, 11.03, 0.00, 0.00, 0.000, 0.000, 0.000, 10:28:07.128
153, 31.07, 13.82, 0.00, 0.00, 0.000, 0.000, 0.000, 10:28:07.144
154, 21.03, -9.26, 0.00, 0.00, 0.000, 0.000, 0.000, 10:28:07.144
155, 23.45, -2.22, 0.00, 0.00, 0.000, 0.000, 0.000, 10:28:07.144
156, 33.20, 7.65, 0.00, 0.00, 0.000, 0.000, 0.000, 10:28:07.144
157, 29.32, 7.30, 0.00, 0.00, 0.000, 0.000, 0.000, 10:28:07.158
158, 28.11, -0.34, 0.00, 0.00, 0.000, 0.000, 0.000, 10:28:07.158
159, 24.40, -1.26, 0.00, 0.00, 0.000, 0.000, 0.000, 10:28:07.173
160, 34.93, 9.07, 0.00, 0.00, 0.000, 0.000, 0.000, 10:28:07.174
161, 33.03, 5.60, 0.00, 0.00, 0.000, 0.000, 0.000, 10:28:07.174
162, 20.72, 3.44, 0.00, 0.00, 0.000, 0.000, 0.000, 10:28:07.174
163, 25.59, 0.03, 0.00, 0.00, 0.000, 0.000, 0.000, 10:28:07.189
164, 33.38, 7.42, 0.00, 0.00, 0.000, 0.000, 0.000, 10:28:07.189
165, 33.87, 8.76, 0.00, 0.00, 0.000, 0.000, 0.000, 10:28:07.203
166, 21.05, -0.18, 0.00, 0.00, 0.000, 0.000, 0.000, 10:28:07.203
167, 22.41, 0.98, 0.00, 0.00, 0.000, 0.000, 0.000, 10:28:07.203
168, 32.47, 6.92, 0.00, 0.00, 0.000, 0.000, 0.000, 10:28:07.203
169, 30.23, 4.72, 0.00, 0.00, 0.000, 0.000, 0.000, 10:28:07.218
170, 23.01, 1.24, 0.00, 0.00, 0.000, 0.000, 0.000, 10:28:07.218
171, 21.29, 2.61, 0.00, 0.00, 0.000, 0.000, 0.000, 10:28:07.232
172, 28.04, 3.99, 0.00, 0.00, 0.000, 0.000, 0.000, 10:28:07.233
173, 30.41, 6.47, 0.00, 0.00, 0.000, 0.000, 0.000, 10:28:07.233
174, 21.44, -6.02, 0.00, 0.00, 0.000, 0.000, 0.000, 10:28:07.233
175, 23.95, 4.38, 0.00, 0.00, 0.000, 0.000, 0.000, 10:28:07.248
176, 29.89, 14.71, 0.00, 0.00, 0.000, 0.000, 0.000, 10:28:07.248
177, 30.23, 8.33, 0.00, 0.00, 0.000, 0.000, 0.000, 10:28:07.263
178, 23.12, -4.04, 0.00, 0.00, 0.000, 0.000, 0.000, 10:28:07.264
179, 21.69, 3.14, 0.00, 0.00, 0.000, 0.000, 0.000, 10:28:07.264
180, 34.18, 11.25, 0.00, 0.00, 0.000, 0.000, 0.000, 10:28:07.264
181, 30.99, 7.68, 0.00, 0.00, 0.000, 0.000, 0.000, 10:28:07.278
182, 25.79, 7.67, 0.00, 0.00, 0.000, 0.000, 0.000, 10:28:07.278
183, 22.22, 1.48, 0.00, 0.00, 0.000, 0.000, 0.000, 10:28:07.294
184, 34.58, 7.80, 0.00, 0.00, 0.000, 0.000, 0.000, 10:28:07.294
185, 31.45, 7.00, 0.00, 0.00, 0.000, 0.000, 0.000, 10:28:07.300
186, 17.64, -2.57, 0.00, 0.00, 0.000, 0.000, 0.000, 10:28:07.300
187, 20.10, 0.97, 0.00, 0.00, 0.000, 0.000, 0.000, 10:28:07.308
188, 33.03, 11.11, 0.00, 0.00, 0.000, 0.000, 0.000, 10:28:07.308
189, 32.96, 8.04, 0.00, 0.00, 0.000, 0.000, 0.000, 10:28:07.323
190, 27.15, 3.66, 0.00, 0.00, 0.000, 0.000, 0.000, 10:28:07.323
191, 24.55, 7.31, 0.00, 0.00, 0.000, 0.000, 0.000, 10:28:07.323
192, 32.95, 5.51, 0.00, 0.00, 0.000, 0.000, 0.000, 10:28:07.324
193, 31.30, 6.12, 0.00, 0.00, 0.000, 0.000, 0.000, 10:28:07.339
194, 19.89, 0.48, 0.00, 0.00, 0.000, 0.000, 0.000, 10:28:07.339
195, 21.60, 0.12, 0.00, 0.00, 0.000, 0.000, 0.000, 10:28:07.353
196, 30.70, 8.49, 0.00, 0.00, 0.000, 0.000, 0.000, 10:28:07.353
197, 28.50, 25.68, 0.00, 0.00, 0.000, 0.000, 0.000, 10:28:07.353
198, 20.85, -11.76, 0.00, 0.00, 0.000, 0.000, 0.000, 10:28:07.353
199, 23.74, -7.16, 0.00, 0.00, 0.000, 0.000, 0.000, 10:28:07.368
200, 34.70, 17.10, 0.00, 0.00, 0.000, 0.000, 0.000, 10:28:07.368
0, 33.25, 9.08, 0.00, 0.00, 0.000, 0.000, 0.000, 10:28:07.369
1, 20.71, 0.75, 0.00, 0.00, 0.000, 0.000, 0.000, 10:28:07.383
2, 22.11, 6.17, 0.00, 0.00, 0.000, 0.000, 0.000, 10:28:07.383
3, 31.16, 7.04, 0.00, 0.00, 0.000, 0.000, 0.000, 10:28:07.398
4, 32.32, 3.99, 0.00, 0.00, 0.000, 0.000, 0.000, 10:28:07.398
5, 24.00, -4.83, 0.00, 0.00, 0.000, 0.000, 0.000, 10:28:07.399
6, 20.40, 1.10, 0.00, 0.00, 0.000, 0.000, 0.000, 10:28:07.399
7, 27.94, 11.17, 0.00, 0.00, 0.000, 0.000, 0.000, 10:28:07.413
8, 32.25, 12.14, 0.00, 0.00, 0.000, 0.000, 0.000, 10:28:07.413
9, 21.46, 0.91, 0.00, 0.00, 0.000, 0.000, 0.000, 10:28:07.428
10, 22.39, -1.90, 0.00, 0.00, 0.000, 0.000, 0.000, 10:28:07.428
11, 28.85, 6.21, 0.00, 0.00, 0.000, 0.000, 0.000, 10:28:07.428
12, 33.49, 6.22, 0.00, 0.00, 0.000, 0.000, 0.000, 10:28:07.429
13, 22.47, 0.49, 0.00, 0.00, 0.000, 0.000, 0.000, 10:28:07.443
14, 25.20, 4.61, 0.00, 0.00, 0.000, 0.000, 0.000, 10:28:07.443
15, 29.36, 7.34, 0.00, 0.00, 0.000, 0.000, 0.000, 10:28:07.458
16, 34.44, 9.16, 0.00, 0.00, 0.000, 0.000, 0.000, 10:28:07.458
17, 22.74, 8.06, 0.00, 0.00, 0.000, 0.000, 0.000, 10:28:07.458
18, 25.15, -1.28, 0.00, 0.00, 0.000, 0.000, 0.000, 10:28:07.458
19, 31.86, 16.27, 0.00, 0.00, 0.000, 0.000, 0.000, 10:28:07.476
20, 34.13, 15.97, 0.00, 0.00, 0.000, 0.000, 0.000, 10:28:07.476
21, 22.10, -13.77, 0.00, 0.00, 0.000, 0.000, 0.000, 10:28:07.488
22, 19.28, -1.20, 0.00, 0.00, 0.000, 0.000, 0.000, 10:28:07.488
23, 35.15, 16.69, 0.00, 0.00, 0.000, 0.000, 0.000, 10:28:07.489
24, 33.12, 5.26, 0.00, 0.00, 0.000, 0.000, 0.000, 10:28:07.489
25, 21.07, -0.34, 0.00, 0.00, 0.000, 0.000, 0.000, 10:28:07.502
26, 21.66, 2.93, 0.00, 0.00, 0.000, 0.000, 0.000, 10:28:07.502
27, 29.68, 8.94, 0.00, 0.00, 0.000, 0.000, 0.000, 10:28:07.519
28, 30.84, 5.34, 0.00, 0.00, 0.000, 0.000, 0.000, 10:28:07.520
29, 27.91, 4.33, 0.00, 0.00, 0.000, 0.000, 0.000, 10:28:07.520
30, 21.69, -0.08, 0.00, 0.00, 0.000, 0.000, 0.000, 10:28:07.520
31, 36.31, 14.78, 0.00, 0.00, 0.000, 0.000, 0.000, 10:28:07.533
32, 36.39, 13.38, 0.00, 0.00, 0.000, 0.000, 0.000, 10:28:07.533
33, 24.12, -3.15, 0.00, 0.00, 0.000, 0.000, 0.000, 10:28:07.548
34, 22.47, 3.13, 0.00, 0.00, 0.000, 0.000, 0.000, 10:28:07.548
35, 33.11, 10.24, 0.00, 0.00, 0.000, 0.000, 0.000, 10:28:07.548
36, 32.18, 8.74, 0.00, 0.00, 0.000, 0.000, 0.000, 10:28:07.548
37, 23.14, 1.32, 0.00, 0.00, 0.000, 0.000, 0.000, 10:28:07.563
38, 22.36, 1.53, 0.00, 0.00, 0.000, 0.000, 0.000, 10:28:07.563
39, 29.98, 10.39, 0.00, 0.00, 0.000, 0.000, 0.000, 10:28:07.578
40, 34.54, 2.60, 0.00, 0.00, 0.000, 0.000, 0.000, 10:28:07.578
41, 22.25, 2.71, 0.00, 0.00, 0.000, 0.000, 0.000, 10:28:07.578
42, 22.76, 13.32, 0.00, 0.00, 0.000, 0.000, 0.000, 10:28:07.579
43, 33.95, -0.26, 0.00, 0.00, 0.000, 0.000, 0.000, 10:28:07.593
44, 33.76, 10.45, 0.00, 0.00, 0.000, 0.000, 0.000, 10:28:07.594
45, 22.60, -1.85, 0.00, 0.00, 0.000, 0.000, 0.000, 10:28:07.608
46, 22.76, 1.42, 0.00, 0.00, 0.000, 0.000, 0.000, 10:28:07.608
47, 28.94, 9.64, 0.00, 0.00, 0.000, 0.000, 0.000, 10:28:07.608
48, 30.25, 4.94, 0.00, 0.00, 0.000, 0.000, 0.000, 10:28:07.609
49, 21.91, 0.52, 0.00, 0.00, 0.000, 0.000, 0.000, 10:28:07.622
50, 22.80, 3.94, 0.00, 0.00, 0.000, 0.000, 0.000, 10:28:07.623
51, 33.37, 8.21, 0.00, 0.00, 0.000, 0.000, 0.000, 10:28:07.638
52, 34.21, 9.47, 0.00, 0.00, 0.000, 0.000, 0.000, 10:28:07.638
53, 24.52, 1.10, 0.00, 0.00, 0.000, 0.000, 0.000, 10:28:07.638
54, 20.94, 1.69, 0.00, 0.00, 0.000, 0.000, 0.000, 10:28:07.638
55, 33.81, 15.83, 0.00, 0.00, 0.000, 0.000, 0.000, 10:28:07.653
56, 35.85, 13.00, 0.00, 0.00, 0.000, 0.000, 0.000, 10:28:07.653
57, 25.70, -0.96, 0.00, 0.00, 0.000, 0.000, 0.000, 10:28:07.668
58, 25.01, -1.12, 0.00, 0.00, 0.000, 0.000, 0.000, 10:28:07.668
59, 31.60, 9.95, 0.00, 0.00, 0.000, 0.000, 0.000, 10:28:07.668
60, 32.90, 7.49, 0.00, 0.00, 0.000, 0.000, 0.000, 10:28:07.668
61, 22.88, 2.80, 0.00, 0.00, 0.000, 0.000, 0.000, 10:28:07.683
62, 19.92, 3.83, 0.00, 0.00, 0.000, 0.000, 0.000, 10:28:07.683
63, 30.74, 8.13, 0.00, 0.00, 0.000, 0.000, 0.000, 10:28:07.699
64, 31.41, 12.18, 0.00, 0.00, 0.000, 0.000, 0.000, 10:28:07.699
65, 19.67, -2.57, 0.00, 0.00, 0.000, 0.000, 0.000, 10:28:07.699
66, 21.47, -2.03, 0.00, 0.00, 0.000, 0.000, 0.000, 10:28:07.699
67, 32.80, 21.61, 0.00, 0.00, 0.000, 0.000, 0.000, 10:28:07.714
68, 31.65, 11.95, 0.00, 0.00, 0.000, 0.000, 0.000, 10:28:07.714
69, 27.08, -2.85, 0.00, 0.00, 0.000, 0.000, 0.000, 10:28:07.728
70, 22.18, -2.10, 0.00, 0.00, 0.000, 0.000, 0.000, 10:28:07.728
71, 32.03, 7.59, 0.00, 0.00, 0.000, 0.000, 0.000, 10:28:07.728
72, 31.49, 7.20, 0.00, 0.00, 0.000, 0.000, 0.000, 10:28:07.728
73, 21.87, 3.23, 0.00, 0.00, 0.000, 0.000, 0.000, 10:28:07.744
74, 22.78, 1.11, 0.00, 0.00, 0.000, 0.000, 0.000, 10:28:07.744
75, 31.34, 11.18, 0.00, 0.00, 0.000, 0.000, 0.000, 10:28:07.758
76, 32.18, 7.86, 0.00, 0.00, 0.000, 0.000, 0.000, 10:28:07.758
77, 30.51, 6.92, 0.00, 0.00, 0.000, 0.000, 0.000, 10:28:07.758
78, 22.90, 3.52, 0.00, 0.00, 0.000, 0.000, 0.000, 10:28:07.758
79, 30.13, 7.93, 0.00, 0.00, 0.000, 0.000, 0.000, 10:28:07.780
80, 29.82, 4.67, 0.00, 0.00, 0.000, 0.000, 0.000, 10:28:07.780
81, 25.07, 4.89, 0.00, 0.00, 0.000, 0.000, 0.000, 10:28:07.788
82, 20.11, 5.99, 0.00, 0.00, 0.000, 0.000, 0.000, 10:28:07.788
83, 29.74, 9.28, 0.00, 0.00, 0.000, 0.000, 0.000, 10:28:07.789
84, 34.75, 10.86, 0.00, 0.00, 0.000, 0.000, 0.000, 10:28:07.789
85, 20.62, 2.87, 0.00, 0.00, 0.000, 0.000, 0.000, 10:28:07.802
86, 21.56, 2.82, 0.00, 0.00, 0.000, 0.000, 0.000, 10:28:07.802
87, 30.23, 11.12, 0.00, 0.00, 0.000, 0.000, 0.000, 10:28:07.818
88, 34.69, 2.58, 0.00, 0.00, 0.000, 0.000, 0.000, 10:28:07.818
89, 25.95, 2.04, 0.00, 0.00, 0.000, 0.000, 0.000, 10:28:07.818
90, 20.85, -2.43, 0.00, 0.00, 0.000, 0.000, 0.000, 10:28:07.818
91, 34.27, 8.33, 0.00, 0.00, 0.000, 0.000, 0.000, 10:28:07.833
92, 33.40, 28.28, 0.00, 0.00, 0.000, 0.000, 0.000, 10:28:07.833
93, 20.62, -14.26, 0.00, 0.00, 0.000, 0.000, 0.000, 10:28:07.848
94, 22.03, -8.73, 0.00, 0.00, 0.000, 0.000, 0.000, 10:28:07.848
95, 32.01, 9.48, 0.00, 0.00, 0.000, 0.000, 0.000, 10:28:07.848
96, 31.76, 9.05, 0.00, 0.00, 0.000, 0.000, 0.000, 10:28:07.848
97, 19.64, 0.46, 0.00, 0.00, 0.000, 0.000, 0.000, 10:28:07.864
98, 20.79, 1.31, 0.00, 0.00, 0.000, 0.000, 0.000, 10:28:07.864
99, 32.53, 13.11, 0.00, 0.00, 0.000, 0.000, 0.000, 10:28:07.878
100, 32.86, 7.48, 0.00, 0.00, 0.000, 0.000, 0.000, 10:28:07.878
101, 24.69, 1.40, 0.00, 0.00, 0.000, 0.000, 0.000, 10:28:07.879
102, 25.08, -1.63, 0.00, 0.00, 0.000, 0.000, 0.000, 10:28:07.879
103, 32.16, 8.47, 0.00, 0.00, 0.000, 0.000, 0.000, 10:28:07.893
104, 32.22, 9.44, 0.00, 0.00, 0.000, 0.000, 0.000, 10:28:07.893
105, 24.57, -4.83, 0.00, 0.00, 0.000, 0.000, 0.000, 10:28:07.908
106, 20.99, -4.16, 0.00, 0.00, 0.000, 0.000, 0.000, 10:28:07.908
107, 35.66, 22.12, 0.00, 0.00, 0.000, 0.000, 0.000, 10:28:07.909
108, 30.65, 6.97, 0.00, 0.00, 0.000, 0.000, 0.000, 10:28:07.909
109, 26.36, -6.31, 0.00, 0.00, 0.000, 0.000, 0.000, 10:28:07.923
110, 20.99, 1.26, 0.00, 0.00, 0.000, 0.000, 0.000, 10:28:07.923
111, 28.51, 5.36, 0.00, 0.00, 0.000, 0.000, 0.000, 10:28:07.937
112, 33.16, 8.18, 0.00, 0.00, 0.000, 0.000, 0.000, 10:28:07.937
113, 24.02, 4.03, 0.00, 0.00, 0.000, 0.000, 0.000, 10:28:07.938
114, 18.59, -2.30, 0.00, 0.00, 0.000, 0.000, 0.000, 10:28:07.938
115, 31.95, -1.16, 0.00, 0.00, 0.000, 0.000, 0.000, 10:28:07.954
116, 40.81, 9.42, 0.00, 0.00, 0.000, 0.000, 0.000, 10:28:07.954
117, 24.90, -2.08, 0.00, 0.00, 0.000, 0.000, 0.000, 10:28:07.968
118, 20.86, -2.11, 0.00, 0.00, 0.000, 0.000, 0.000, 10:28:07.968
119, 33.15, 5.48, 0.00, 0.00, 0.000, 0.000, 0.000, 10:28:07.968
120, 36.13, 7.94, 0.00, 0.00, 0.000, 0.000, 0.000, 10:28:07.968
121, 24.55, -4.37, 0.00, 0.00, 0.000, 0.000, 0.000, 10:28:07.982
122, 19.96, -1.24, 0.00, 0.00, 0.000, 0.000, 0.000, 10:28:07.982
123, 29.20, 5.29, 0.00, 0.00, 0.000, 0.000, 0.000, 10:28:07.998
124, 35.25, 6.46, 0.00, 0.00, 0.000, 0.000, 0.000, 10:28:07.998
125, 26.10, 0.32, 0.00, 0.00, 0.000, 0.000, 0.000, 10:28:07.999
126, 24.18, -4.60, 0.00, 0.00, 0.000, 0.000, 0.000, 10:28:07.999
127, 34.07, 4.49, 0.00, 0.00, 0.000, 0.000, 0.000, 10:28:08.013
128, 37.13, 25.11, 0.00, 0.00, 0.000, 0.000, 0.000, 10:28:08.013
129, 23.92, -11.91, 0.00, 0.00, 0.000, 0.000, 0.000, 10:28:08.028
130, 19.76, -4.67, 0.00, 0.00, 0.000, 0.000, 0.000, 10:28:08.028
131, 32.41, 8.26, 0.00, 0.00, 0.000, 0.000, 0.000, 10:28:08.028
132, 35.10, 9.59, 0.00, 0.00, 0.000, 0.000, 0.000, 10:28:08.028
133, 23.32, -0.50, 0.00, 0.00, 0.000, 0.000, 0.000, 10:28:08.043
134, 18.14, -1.67, 0.00, 0.00, 0.000, 0.000, 0.000, 10:28:08.043
135, 31.76, 4.75, 0.00, 0.00, 0.000, 0.000, 0.000, 10:28:08.058
136, 36.00, 6.23, 0.00, 0.00, 0.000, 0.000, 0.000, 10:28:08.058
137, 19.35, 10.10, 0.00, 0.00, 0.000, 0.000, 0.000, 10:28:08.058
138, 21.05, -13.94, 0.00, 0.00, 0.000, 0.000, 0.000, 10:28:08.058
139, 28.26, 6.37, 0.00, 0.00, 0.000, 0.000, 0.000, 10:28:08.088
140, 34.30, 16.64, 0.00, 0.00, 0.000, 0.000, 0.000, 10:28:08.088
141, 26.10, 1.46, 0.00, 0.00, 0.000, 0.000, 0.000, 10:28:08.088
142, 21.54, 2.01, 0.00, 0.00, 0.000, 0.000, 0.000, 10:28:08.088
143, 32.28, 11.62, 0.00, 0.00, 0.000, 0.000, 0.000, 10:28:08.089
144, 38.96, 14.57, 0.00, 0.00, 0.000, 0.000, 0.000, 10:28:08.089
145, 24.59, 0.32, 0.00, 0.00, 0.000, 0.000, 0.000, 10:28:08.103
146, 21.63, 0.72, 0.00, 0.00, 0.000, 0.000, 0.000, 10:28:08.104
147, 29.14, 4.85, 0.00, 0.00, 0.000, 0.000, 0.000, 10:28:08.118
148, 38.93, 6.81, 0.00, 0.00, 0.000, 0.000, 0.000, 10:28:08.119
149, 27.03, -8.92, 0.00, 0.00, 0.000, 0.000, 0.000, 10:28:08.119
150, 22.69, 1.73, 0.00, 0.00, 0.000, 0.000, 0.000, 10:28:08.119
151, 34.46, 16.58, 0.00, 0.00, 0.000, 0.000, 0.000, 10:28:08.133
152, 36.80, 17.21, 0.00, 0.00, 0.000, 0.000, 0.000, 10:28:08.133
153, 22.96, 1.70, 0.00, 0.00, 0.000, 0.000, 0.000, 10:28:08.149
154, 19.17, 1.12, 0.00, 0.00, 0.000, 0.000, 0.000, 10:28:08.149
155, 31.76, 6.16, 0.00, 0.00, 0.000, 0.000, 0.000, 10:28:08.149
156, 31.07, 6.37, 0.00, 0.00, 0.000, 0.000, 0.000, 10:28:08.150
157, 24.69, 7.89, 0.00, 0.00, 0.000, 0.000, 0.000, 10:28:08.163
158, 22.14, -8.77, 0.00, 0.00, 0.000, 0.000, 0.000, 10:28:08.164
159, 32.11, 5.46, 0.00, 0.00, 0.000, 0.000, 0.000, 10:28:08.178
160, 33.46, 14.55, 0.00, 0.00, 0.000, 0.000, 0.000, 10:28:08.178
161, 25.12, 3.92, 0.00, 0.00, 0.000, 0.000, 0.000, 10:28:08.179
162, 21.21, -1.02, 0.00, 0.00, 0.000, 0.000, 0.000, 10:28:08.179
163, 31.91, 6.57, 0.00, 0.00, 0.000, 0.000, 0.000, 10:28:08.193
164, 34.70, 12.75, 0.00, 0.00, 0.000, 0.000, 0.000, 10:28:08.194
165, 25.63, 1.06, 0.00, 0.00, 0.000, 0.000, 0.000, 10:28:08.208
166, 22.40, -1.28, 0.00, 0.00, 0.000, 0.000, 0.000, 10:28:08.208
167, 34.55, 14.43, 0.00, 0.00, 0.000, 0.000, 0.000, 10:28:08.208
168, 34.24, 8.24, 0.00, 0.00, 0.000, 0.000, 0.000, 10:28:08.208
169, 26.87, 1.67, 0.00, 0.00, 0.000, 0.000, 0.000, 10:28:08.223
170, 22.54, 0.37, 0.00, 0.00, 0.000, 0.000, 0.000, 10:28:08.223
171, 31.36, 5.34, 0.00, 0.00, 0.000, 0.000, 0.000, 10:28:08.238
172, 36.35, 13.91, 0.00, 0.00, 0.000, 0.000, 0.000, 10:28:08.238
173, 24.67, 4.02, 0.00, 0.00, 0.000, 0.000, 0.000, 10:28:08.238
174, 19.26, -1.31, 0.00, 0.00, 0.000, 0.000, 0.000, 10:28:08.238
175, 29.14, 5.68, 0.00, 0.00, 0.000, 0.000, 0.000, 10:28:08.254
176, 32.96, 8.86, 0.00, 0.00, 0.000, 0.000, 0.000, 10:28:08.254
177, 25.26, 0.11, 0.00, 0.00, 0.000, 0.000, 0.000, 10:28:08.268
178, 18.65, 6.69, 0.00, 0.00, 0.000, 0.000, 0.000, 10:28:08.269
179, 29.98, 9.43, 0.00, 0.00, 0.000, 0.000, 0.000, 10:28:08.269
180, 37.57, 5.78, 0.00, 0.00, 0.000, 0.000, 0.000, 10:28:08.269
181, 23.16, -3.63, 0.00, 0.00, 0.000, 0.000, 0.000, 10:28:08.283
182, 23.23, -1.53, 0.00, 0.00, 0.000, 0.000, 0.000, 10:28:08.284
183, 25.04, 11.43, 0.00, 0.00, 0.000, 0.000, 0.000, 10:28:08.298
184, 33.34, 10.44, 0.00, 0.00, 0.000, 0.000, 0.000, 10:28:08.298
185, 29.72, 3.07, 0.00, 0.00, 0.000, 0.000, 0.000, 10:28:08.298
186, 21.78, 1.99, 0.00, 0.00, 0.000, 0.000, 0.000, 10:28:08.298
187, 25.41, 5.91, 0.00, 0.00, 0.000, 0.000, 0.000, 10:28:08.313
188, 34.65, 6.73, 0.00, 0.00, 0.000, 0.000, 0.000, 10:28:08.313
189, 23.95, 3.69, 0.00, 0.00, 0.000, 0.000, 0.000, 10:28:08.328
190, 21.43, 2.53, 0.00, 0.00, 0.000, 0.000, 0.000, 10:28:08.328
191, 28.87, 8.28, 0.00, 0.00, 0.000, 0.000, 0.000, 10:28:08.328
192, 33.22, 11.24, 0.00, 0.00, 0.000, 0.000, 0.000, 10:28:08.328
193, 22.65, -1.73, 0.00, 0.00, 0.000, 0.000, 0.000, 10:28:08.343
194, 20.29, 0.62, 0.00, 0.00, 0.000, 0.000, 0.000, 10:28:08.343
195, 29.89, 10.05, 0.00, 0.00, 0.000, 0.000, 0.000, 10:28:08.358
196, 34.58, 11.13, 0.00, 0.00, 0.000, 0.000, 0.000, 10:28:08.358
197, 24.49, 2.92, 0.00, 0.00, 0.000, 0.000, 0.000, 10:28:08.359
198, 22.46, -2.37, 0.00, 0.00, 0.000, 0.000, 0.000, 10:28:08.359
199, 29.11, 5.98, 0.00, 0.00, 0.000, 0.000, 0.000, 10:28:08.373
200, 33.00, 24.54, 0.00, 0.00, 0.000, 0.000, 0.000, 10:28:08.373
0, 25.23, -3.49, 0.00, 0.00, 0.000, 0.000, 0.000, 10:28:08.374
1, 24.48, -7.58, 0.00, 0.00, 0.000, 0.000, 0.000, 10:28:08.403
2, 27.78, 6.48, 0.00, 0.00, 0.000, 0.000, 0.000, 10:28:08.403
3, 31.63, 8.61, 0.00, 0.00, 0.000, 0.000, 0.000, 10:28:08.403
4, 22.95, 3.97, 0.00, 0.00, 0.000, 0.000, 0.000, 10:28:08.403
5, 19.34, -0.17, 0.00, 0.00, 0.000, 0.000, 0.000, 10:28:08.404
6, 29.29, 11.16, 0.00, 0.00, 0.000, 0.000, 0.000, 10:28:08.404
7, 31.04, 11.40, 0.00, 0.00, 0.000, 0.000, 0.000, 10:28:08.417
8, 22.95, 11.02, 0.00, 0.00, 0.000, 0.000, 0.000, 10:28:08.417
9, 20.22, -13.19, 0.00, 0.00, 0.000, 0.000, 0.000, 10:28:08.433
10, 28.17, 5.85, 0.00, 0.00, 0.000, 0.000, 0.000, 10:28:08.433
11, 33.63, 19.03, 0.00, 0.00, 0.000, 0.000, 0.000, 10:28:08.433
12, 19.57, 2.22, 0.00, 0.00, 0.000, 0.000, 0.000, 10:28:08.433
13, 16.25, -0.96, 0.00, 0.00, 0.000, 0.000, 0.000, 10:28:08.447
14, 28.89, 11.81, 0.00, 0.00, 0.000, 0.000, 0.000, 10:28:08.448
15, 30.39, 8.22, 0.00, 0.00, 0.000, 0.000, 0.000, 10:28:08.463
16, 24.24, 0.47, 0.00, 0.00, 0.000, 0.000, 0.000, 10:28:08.463
17, 18.33, 1.47, 0.00, 0.00, 0.000, 0.000, 0.000, 10:28:08.465
18, 27.88, 4.96, 0.00, 0.00, 0.000, 0.000, 0.000, 10:28:08.465
19, 30.56, 7.82, 0.00, 0.00, 0.000, 0.000, 0.000, 10:28:08.479
20, 20.64, 8.04, 0.00, 0.00, 0.000, 0.000, 0.000, 10:28:08.479
21, 20.77, -1.99, 0.00, 0.00, 0.000, 0.000, 0.000, 10:28:08.493
22, 29.20, 0.68, 0.00, 0.00, 0.000, 0.000, 0.000, 10:28:08.493
23, 30.40, 8.16, 0.00, 0.00, 0.000, 0.000, 0.000, 10:28:08.493
24, 21.34, 0.95, 0.00, 0.00, 0.000, 0.000, 0.000, 10:28:08.493
25, 18.94, 1.08, 0.00, 0.00, 0.000, 0.000, 0.000, 10:28:08.508
26, 24.96, 4.04, 0.00, 0.00, 0.000, 0.000, 0.000, 10:28:08.508
27, 28.07, 7.56, 0.00, 0.00, 0.000, 0.000, 0.000, 10:28:08.522
28, 19.66, 3.18, 0.00, 0.00, 0.000, 0.000, 0.000, 10:28:08.522
29, 18.77, 0.05, 0.00, 0.00, 0.000, 0.000, 0.000, 10:28:08.523
30, 26.28, 4.21, 0.00, 0.00, 0.000, 0.000, 0.000, 10:28:08.524
31, 30.58, 3.76, 0.00, 0.00, 0.000, 0.000, 0.000, 10:28:08.538
32, 21.91, 5.35, 0.00, 0.00, 0.000, 0.000, 0.000, 10:28:08.538
33, 17.97, -0.81, 0.00, 0.00, 0.000, 0.000, 0.000, 10:28:08.554
34, 26.99, 4.56, 0.00, 0.00, 0.000, 0.000, 0.000, 10:28:08.554
35, 32.57, 8.10, 0.00, 0.00, 0.000, 0.000, 0.000, 10:28:08.554
36, 24.43, -5.15, 0.00, 0.00, 0.000, 0.000, 0.000, 10:28:08.554
37, 20.36, -7.42, 0.00, 0.00, 0.000, 0.000, 0.000, 10:28:08.583
38, 27.57, 16.61, 0.00, 0.00, 0.000, 0.000, 0.000, 10:28:08.583
39, 30.96, 9.00, 0.00, 0.00, 0.000, 0.000, 0.000, 10:28:08.583
40, 23.80, 1.54, 0.00, 0.00, 0.000, 0.000, 0.000, 10:28:08.583
41, 19.55, -1.01, 0.00, 0.00, 0.000, 0.000, 0.000, 10:28:08.584
42, 26.56, 11.65, 0.00, 0.00, 0.000, 0.000, 0.000, 10:28:08.584
43, 33.34, 2.60, 0.00, 0.00, 0.000, 0.000, 0.000, 10:28:08.598
44, 25.09, 5.12, 0.00, 0.00, 0.000, 0.000, 0.000, 10:28:08.599
45, 19.51, 4.13, 0.00, 0.00, 0.000, 0.000, 0.000, 10:28:08.613
46, 23.44, 5.71, 0.00, 0.00, 0.000, 0.000, 0.000, 10:28:08.613
47, 32.02, 11.12, 0.00, 0.00, 0.000, 0.000, 0.000, 10:28:08.614
48, 22.41, 3.53, 0.00, 0.00, 0.000, 0.000, 0.000, 10:28:08.614
49, 15.38, 5.19, 0.00, 0.00, 0.000, 0.000, 0.000, 10:28:08.643
50, 27.65, 3.99, 0.00, 0.00, 0.000, 0.000, 0.000, 10:28:08.643
51, 31.06, 8.28, 0.00, 0.00, 0.000, 0.000, 0.000, 10:28:08.643
52, 22.87, 0.38, 0.00, 0.00, 0.000, 0.000, 0.000, 10:28:08.643
53, 19.24, 2.73, 0.00, 0.00, 0.000, 0.000, 0.000, 10:28:08.644
54, 27.05, 3.66, 0.00, 0.00, 0.000, 0.000, 0.000, 10:28:08.644
55, 32.07, 7.86, 0.00, 0.00, 0.000, 0.000, 0.000, 10:28:08.665
56, 24.36, 1.46, 0.00, 0.00, 0.000, 0.000, 0.000, 10:28:08.665
57, 20.76, -0.14, 0.00, 0.00, 0.000, 0.000, 0.000, 10:28:08.673
58, 26.73, 2.19, 0.00, 0.00, 0.000, 0.000, 0.000, 10:28:08.673
59, 33.30, 9.76, 0.00, 0.00, 0.000, 0.000, 0.000, 10:28:08.673
60, 18.01, -2.98, 0.00, 0.00, 0.000, 0.000, 0.000, 10:28:08.674
61, 20.13, -0.27, 0.00, 0.00, 0.000, 0.000, 0.000, 10:28:08.703
62, 29.53, 3.09, 0.00, 0.00, 0.000, 0.000, 0.000, 10:28:08.704
63, 30.03, 23.88, 0.00, 0.00, 0.000, 0.000, 0.000, 10:28:08.704
64, 25.76, -10.37, 0.00, 0.00, 0.000, 0.000, 0.000, 10:28:08.704
65, 17.70, -2.38, 0.00, 0.00, 0.000, 0.000, 0.000, 10:28:08.704
66, 25.13, 4.27, 0.00, 0.00, 0.000, 0.000, 0.000, 10:28:08.704
67, 29.75, 5.26, 0.00, 0.00, 0.000, 0.000, 0.000, 10:28:08.717
68, 22.89, 2.53, 0.00, 0.00, 0.000, 0.000, 0.000, 10:28:08.718
69, 12.76, -7.54, 0.00, 0.00, 0.000, 0.000, 0.000, 10:28:08.733
70, 25.91, 3.64, 0.00, 0.00, 0.000, 0.000, 0.000, 10:28:08.733
71, 33.14, 13.28, 0.00, 0.00, 0.000, 0.000, 0.000, 10:28:08.733
72, 24.27, -5.24, 0.00, 0.00, 0.000, 0.000, 0.000, 10:28:08.733
73, 19.30, -2.86, 0.00, 0.00, 0.000, 0.000, 0.000, 10:28:08.763
74, 23.24, 5.21, 0.00, 0.00, 0.000, 0.000, 0.000, 10:28:08.763
75, 29.02, 5.63, 0.00, 0.00, 0.000, 0.000, 0.000, 10:28:08.763
76, 22.56, 3.68, 0.00, 0.00, 0.000, 0.000, 0.000, 10:28:08.764
77, 20.72, -1.61, 0.00, 0.00, 0.000, 0.000, 0.000, 10:28:08.765
78, 27.47, 3.24, 0.00, 0.00, 0.000, 0.000, 0.000, 10:28:08.765
79, 30.37, 5.11, 0.00, 0.00, 0.000, 0.000, 0.000, 10:28:08.778
80, 22.37, 2.85, 0.00, 0.00, 0.000, 0.000, 0.000, 10:28:08.778
81, 19.05, -3.24, 0.00, 0.00, 0.000, 0.000, 0.000, 10:28:08.793
82, 29.64, 3.87, 0.00, 0.00, 0.000, 0.000, 0.000, 10:28:08.793
83, 34.50, 9.33, 0.00, 0.00, 0.000, 0.000, 0.000, 10:28:08.793
84, 25.75, 0.10, 0.00, 0.00, 0.000, 0.000, 0.000, 10:28:08.793
85, 20.40, -7.73, 0.00, 0.00, 0.000, 0.000, 0.000, 10:28:08.808
86, 29.73, 11.78, 0.00, 0.00, 0.000, 0.000, 0.000, 10:28:08.808
87, 39.30, 28.01, 0.00, 0.00, 0.000, 0.000, 0.000, 10:28:08.823
88, 28.67, -12.44, 0.00, 0.00, 0.000, 0.000, 0.000, 10:28:08.823
89, 19.33, 0.67, 0.00, 0.00, 0.000, 0.000, 0.000, 10:28:08.824
90, 25.37, 0.91, 0.00, 0.00, 0.000, 0.000, 0.000, 10:28:08.824
91, 35.51, 6.39, 0.00, 0.00, 0.000, 0.000, 0.000, 10:28:08.838
92, 26.41, 3.35, 0.00, 0.00, 0.000, 0.000, 0.000, 10:28:08.838
93, 19.57, 0.50, 0.00, 0.00, 0.000, 0.000, 0.000, 10:28:08.853
94, 27.75, 2.58, 0.00, 0.00, 0.000, 0.000, 0.000, 10:28:08.853
95, 32.30, 17.96, 0.00, 0.00, 0.000, 0.000, 0.000, 10:28:08.854
96, 23.84, -1.23, 0.00, 0.00, 0.000, 0.000, 0.000, 10:28:08.854
97, 19.55, -4.06, 0.00, 0.00, 0.000, 0.000, 0.000, 10:28:08.868
98, 27.84, 4.00, 0.00, 0.00, 0.000, 0.000, 0.000, 10:28:08.868
99, 31.40, 9.45, 0.00, 0.00, 0.000, 0.000, 0.000, 10:28:08.883
100, 23.30, 2.67, 0.00, 0.00, 0.000, 0.000, 0.000, 10:28:08.883
101, 19.50, -1.71, 0.00, 0.00, 0.000, 0.000, 0.000, 10:28:08.883
102, 25.37, 7.78, 0.00, 0.00, 0.000, 0.000, 0.000, 10:28:08.883
103, 30.70, 11.03, 0.00, 0.00, 0.000, 0.000, 0.000, 10:28:08.898
104, 25.20, 6.28, 0.00, 0.00, 0.000, 0.000, 0.000, 10:28:08.898
105, 19.32, -0.09, 0.00, 0.00, 0.000, 0.000, 0.000, 10:28:08.913
106, 28.71, 4.91, 0.00, 0.00, 0.000, 0.000, 0.000, 10:28:08.913
107, 33.25, 9.68, 0.00, 0.00, 0.000, 0.000, 0.000, 10:28:08.914
108, 22.90, -0.98, 0.00, 0.00, 0.000, 0.000, 0.000, 10:28:08.914
109, 21.32, 8.77, 0.00, 0.00, 0.000, 0.000, 0.000, 10:28:08.928
110, 26.65, 3.64, 0.00, 0.00, 0.000, 0.000, 0.000, 10:28:08.928
111, 37.78, 4.17, 0.00, 0.00, 0.000, 0.000, 0.000, 10:28:08.943
112, 21.97, 1.15, 0.00, 0.00, 0.000, 0.000, 0.000, 10:28:08.943
113, 18.88, -1.51, 0.00, 0.00, 0.000, 0.000, 0.000, 10:28:08.943
114, 28.87, 2.06, 0.00, 0.00, 0.000, 0.000, 0.000, 10:28:08.943
115, 33.32, 7.62, 0.00, 0.00, 0.000, 0.000, 0.000, 10:28:08.958
116, 22.85, 0.23, 0.00, 0.00, 0.000, 0.000, 0.000, 10:28:08.958
117, 18.81, -1.27, 0.00, 0.00, 0.000, 0.000, 0.000, 10:28:08.974
118, 24.33, 8.42, 0.00, 0.00, 0.000, 0.000, 0.000, 10:28:08.974
119, 32.56, 4.16, 0.00, 0.00, 0.000, 0.000, 0.000, 10:28:08.974
120, 25.81, 1.90, 0.00, 0.00, 0.000, 0.000, 0.000, 10:28:08.974
121, 21.48, -0.56, 0.00, 0.00, 0.000, 0.000, 0.000, 10:28:08.989
122, 24.69, 0.47, 0.00, 0.00, 0.000, 0.000, 0.000, 10:28:08.989
123, 31.99, 8.26, 0.00, 0.00, 0.000, 0.000, 0.000, 10:28:09.003
124, 22.31, 1.42, 0.00, 0.00, 0.000, 0.000, 0.000, 10:28:09.003
125, 22.60, -0.41, 0.00, 0.00, 0.000, 0.000, 0.000, 10:28:09.003
126, 24.66, 2.88, 0.00, 0.00, 0.000, 0.000, 0.000, 10:28:09.003
127, 32.32, 4.37, 0.00, 0.00, 0.000, 0.000, 0.000, 10:28:09.018
128, 26.36, 2.54, 0.00, 0.00, 0.000, 0.000, 0.000, 10:28:09.018
129, 21.75, 5.89, 0.00, 0.00, 0.000, 0.000, 0.000, 10:28:09.032
130, 20.86, -3.09, 0.00, 0.00, 0.000, 0.000, 0.000, 10:28:09.033
131, 28.71, 10.46, 0.00, 0.00, 0.000, 0.000, 0.000, 10:28:09.033
132, 22.38, -9.90, 0.00, 0.00, 0.000, 0.000, 0.000, 10:28:09.033
133, 20.08, -5.35, 0.00, 0.00, 0.000, 0.000, 0.000, 10:28:09.054
134, 24.36, 2.15, 0.00, 0.00, 0.000, 0.000, 0.000, 10:28:09.055
135, 32.23, 12.13, 0.00, 0.00, 0.000, 0.000, 0.000, 10:28:09.063
136, 23.45, -0.36, 0.00, 0.00, 0.000, 0.000, 0.000, 10:28:09.063
137, 18.13, -3.76, 0.00, 0.00, 0.000, 0.000, 0.000, 10:28:09.063
138, 24.25, 3.31, 0.00, 0.00, 0.000, 0.000, 0.000, 10:28:09.063
139, 33.02, 5.80, 0.00, 0.00, 0.000, 0.000, 0.000, 10:28:09.079
140, 24.87, 4.83, 0.00, 0.00, 0.000, 0.000, 0.000, 10:28:09.079
141, 19.35, 0.27, 0.00, 0.00, 0.000, 0.000, 0.000, 10:28:09.093
142, 24.68, 2.63, 0.00, 0.00, 0.000, 0.000, 0.000, 10:28:09.093
143, 32.44, 11.66, 0.00, 0.00, 0.000, 0.000, 0.000, 10:28:09.093
144, 26.64, 1.47, 0.00, 0.00, 0.000, 0.000, 0.000, 10:28:09.093
145, 21.02, -6.34, 0.00, 0.00, 0.000, 0.000, 0.000, 10:28:09.108
146, 26.15, 3.37, 0.00, 0.00, 0.000, 0.000, 0.000, 10:28:09.108
147, 32.25, 6.45, 0.00, 0.00, 0.000, 0.000, 0.000, 10:28:09.138
148, 25.05, 1.13, 0.00, 0.00, 0.000, 0.000, 0.000, 10:28:09.138
149, 21.17, -0.43, 0.00, 0.00, 0.000, 0.000, 0.000, 10:28:09.138
150, 23.28, 8.89, 0.00, 0.00, 0.000, 0.000, 0.000, 10:28:09.138
151, 31.54, 15.23, 0.00, 0.00, 0.000, 0.000, 0.000, 10:28:09.139
152, 25.23, -11.17, 0.00, 0.00, 0.000, 0.000, 0.000, 10:28:09.139
153, 21.38, -10.92, 0.00, 0.00, 0.000, 0.000, 0.000, 10:28:09.140
154, 26.25, 8.90, 0.00, 0.00, 0.000, 0.000, 0.000, 10:28:09.140
155, 34.24, 16.64, 0.00, 0.00, 0.000, 0.000, 0.000, 10:28:09.153
156, 26.99, 3.46, 0.00, 0.00, 0.000, 0.000, 0.000, 10:28:09.153
157, 19.82, 0.58, 0.00, 0.00, 0.000, 0.000, 0.000, 10:28:09.169
158, 30.85, 13.17, 0.00, 0.00, 0.000, 0.000, 0.000, 10:28:09.169
159, 30.60, 10.91, 0.00, 0.00, 0.000, 0.000, 0.000, 10:28:09.182
160, 24.15, 2.69, 0.00, 0.00, 0.000, 0.000, 0.000, 10:28:09.183
161, 19.54, 2.22, 0.00, 0.00, 0.000, 0.000, 0.000, 10:28:09.183
162, 24.14, 4.53, 0.00, 0.00, 0.000, 0.000, 0.000, 10:28:09.183
163, 32.60, 9.00, 0.00, 0.00, 0.000, 0.000, 0.000, 10:28:09.198
164, 23.71, 6.81, 0.00, 0.00, 0.000, 0.000, 0.000, 10:28:09.198
165, 15.52, -4.25, 0.00, 0.00, 0.000, 0.000, 0.000, 10:28:09.214
166, 26.96, 5.11, 0.00, 0.00, 0.000, 0.000, 0.000, 10:28:09.214
167, 33.05, 13.09, 0.00, 0.00, 0.000, 0.000, 0.000, 10:28:09.214
168, 29.27, 1.95, 0.00, 0.00, 0.000, 0.000, 0.000, 10:28:09.214
169, 19.56, -4.80, 0.00, 0.00, 0.000, 0.000, 0.000, 10:28:09.231
170, 25.21, 17.85, 0.00, 0.00, 0.000, 0.000, 0.000, 10:28:09.231
171, 40.94, 6.28, 0.00, 0.00, 0.000, 0.000, 0.000, 10:28:09.243
172, 27.14, 2.57, 0.00, 0.00, 0.000, 0.000, 0.000, 10:28:09.243
173, 18.45, -1.71, 0.00, 0.00, 0.000, 0.000, 0.000, 10:28:09.243
174, 25.10, 4.05, 0.00, 0.00, 0.000, 0.000, 0.000, 10:28:09.244
175, 35.64, 10.14, 0.00, 0.00, 0.000, 0.000, 0.000, 10:28:09.258
176, 26.49, 5.37, 0.00, 0.00, 0.000, 0.000, 0.000, 10:28:09.258
177, 20.14, -1.70, 0.00, 0.00, 0.000, 0.000, 0.000, 10:28:09.273
178, 27.21, 4.83, 0.00, 0.00, 0.000, 0.000, 0.000, 10:28:09.273
179, 38.84, 22.45, 0.00, 0.00, 0.000, 0.000, 0.000, 10:28:09.273
180, 29.99, 10.46, 0.00, 0.00, 0.000, 0.000, 0.000, 10:28:09.273
181, 24.39, 6.72, 0.00, 0.00, 0.000, 0.000, 0.000, 10:28:09.289
182, 29.57, 10.58, 0.00, 0.00, 0.000, 0.000, 0.000, 10:28:09.289
183, 35.67, 11.83, 0.00, 0.00, 0.000, 0.000, 0.000, 10:28:09.304
184, 25.97, 4.82, 0.00, 0.00, 0.000, 0.000, 0.000, 10:28:09.304
185, 21.64, 2.60, 0.00, 0.00, 0.000, 0.000, 0.000, 10:28:09.304
186, 32.99, 9.04, 0.00, 0.00, 0.000, 0.000, 0.000, 10:28:09.304
187, 35.19, 13.49, 0.00, 0.00, 0.000, 0.000, 0.000, 10:28:09.318
188, 28.09, 7.57, 0.00, 0.00, 0.000, 0.000, 0.000, 10:28:09.318
189, 17.97, 1.38, 0.00, 0.00, 0.000, 0.000, 0.000, 10:28:09.333
190, 27.21, 2.76, 0.00, 0.00, 0.000, 0.000, 0.000, 10:28:09.333
191, 34.27, 17.06, 0.00, 0.00, 0.000, 0.000, 0.000, 10:28:09.333
192, 27.95, 9.52, 0.00, 0.00, 0.000, 0.000, 0.000, 10:28:09.333
193, 19.97, -0.78, 0.00, 0.00, 0.000, 0.000, 0.000, 10:28:09.355
194, 26.78, 4.81, 0.00, 0.00, 0.000, 0.000, 0.000, 10:28:09.355
195, 37.17, 5.03, 0.00, 0.00, 0.000, 0.000, 0.000, 10:28:09.363
196, 26.59, 1.31, 0.00, 0.00, 0.000, 0.000, 0.000, 10:28:09.363
197, 19.52, 4.43, 0.00, 0.00, 0.000, 0.000, 0.000, 10:28:09.363
198, 25.55, 6.68, 0.00, 0.00, 0.000, 0.000, 0.000, 10:28:09.363
199, 33.62, 15.40, 0.00, 0.00, 0.000, 0.000, 0.000, 10:28:09.378
200, 28.46, 4.56, 0.00, 0.00, 0.000, 0.000, 0.000, 10:28:09.378
0, 19.29, 3.92, 0.00, 0.00, 0.000, 0.000, 0.000, 10:28:09.393
1, 27.62, 5.40, 0.00, 0.00, 0.000, 0.000, 0.000, 10:28:09.393
2, 34.72, 19.04, 0.00, 0.00, 0.000, 0.000, 0.000, 10:28:09.393
3, 29.73, 8.87, 0.00, 0.00, 0.000, 0.000, 0.000, 10:28:09.408
4, 17.82, -4.01, 0.00, 0.00, 0.000, 0.000, 0.000, 10:28:09.408
5, 24.06, 6.86, 0.00, 0.00, 0.000, 0.000, 0.000, 10:28:09.409
6, 36.88, 42.47, 0.00, 0.00, 0.000, 0.000, 0.000, 10:28:09.409
7, 29.68, -5.79, 0.00, 0.00, 0.000, 0.000, 0.000, 10:28:09.422
8, 21.93, -0.51, 0.00, 0.00, 0.000, 0.000, 0.000, 10:28:09.422
9, 25.15, 4.21, 0.00, 0.00, 0.000, 0.000, 0.000, 10:28:09.439
10, 31.97, 13.50, 0.00, 0.00, 0.000, 0.000, 0.000, 10:28:09.439
11, 26.25, 5.52, 0.00, 0.00, 0.000, 0.000, 0.000, 10:28:09.439
12, 21.95, -1.38, 0.00, 0.00, 0.000, 0.000, 0.000, 10:28:09.439
13, 23.56, 7.56, 0.00, 0.00, 0.000, 0.000, 0.000, 10:28:09.453
14, 34.71, 28.98, 0.00, 0.00, 0.000, 0.000, 0.000, 10:28:09.454
15, 26.29, -5.65, 0.00, 0.00, 0.000, 0.000, 0.000, 10:28:09.468
16, 21.39, -1.44, 0.00, 0.00, 0.000, 0.000, 0.000, 10:28:09.468
17, 26.75, 8.15, 0.00, 0.00, 0.000, 0.000, 0.000, 10:28:09.468
18, 29.21, 8.86, 0.00, 0.00, 0.000, 0.000, 0.000, 10:28:09.468
19, 24.18, 6.38, 0.00, 0.00, 0.000, 0.000, 0.000, 10:28:09.482
20, 16.99, 1.75, 0.00, 0.00, 0.000, 0.000, 0.000, 10:28:09.482
21, 23.85, 8.42, 0.00, 0.00, 0.000, 0.000, 0.000, 10:28:09.498
22, 32.67, 14.64, 0.00, 0.00, 0.000, 0.000, 0.000, 10:28:09.498
23, 25.16, 6.37, 0.00, 0.00, 0.000, 0.000, 0.000, 10:28:09.498
24, 18.42, -3.15, 0.00, 0.00, 0.000, 0.000, 0.000, 10:28:09.498
25, 22.03, 5.16, 0.00, 0.00, 0.000, 0.000, 0.000, 10:28:09.515
26, 30.02, 16.17, 0.00, 0.00, 0.000, 0.000, 0.000, 10:28:09.516
27, 30.64, 1.16, 0.00, 0.00, 0.000, 0.000, 0.000, 10:28:09.530
28, 17.74, 7.15, 0.00, 0.00, 0.000, 0.000, 0.000, 10:28:09.530
29, 22.32, 9.64, 0.00, 0.00, 0.000, 0.000, 0.000, 10:28:09.530
30, 30.25, 16.20, 0.00, 0.00, 0.000, 0.000, 0.000, 10:28:09.530
31, 24.86, 14.91, 0.00, 0.00, 0.000, 0.000, 0.000, 10:28:09.543
32, 19.24, -5.03, 0.00, 0.00, 0.000, 0.000, 0.000, 10:28:09.543
33, 23.51, 1.67, 0.00, 0.00, 0.000, 0.000, 0.000, 10:28:09.558
34, 25.55, 7.58, 0.00, 0.00, 0.000, 0.000, 0.000, 10:28:09.558
35, 23.18, 3.90, 0.00, 0.00, 0.000, 0.000, 0.000, 10:28:09.559
36, 20.01, 3.79, 0.00, 0.00, 0.000, 0.000, 0.000, 10:28:09.559
37, 25.59, 9.55, 0.00, 0.00, 0.000, 0.000, 0.000, 10:28:09.573
38, 30.53, 16.17, 0.00, 0.00, 0.000, 0.000, 0.000, 10:28:09.573
39, 24.26, 7.03, 0.00, 0.00, 0.000, 0.000, 0.000, 10:28:09.588
40, 21.58, 6.64, 0.00, 0.00, 0.000, 0.000, 0.000, 10:28:09.588
41, 22.69, 7.28, 0.00, 0.00, 0.000, 0.000, 0.000, 10:28:09.589
42, 30.40, 7.56, 0.00, 0.00, 0.000, 0.000, 0.000, 10:28:09.589
43, 24.38, 5.75, 0.00, 0.00, 0.000, 0.000, 0.000, 10:28:09.603
44, 16.22, 9.99, 0.00, 0.00, 0.000, 0.000, 0.000, 10:28:09.603
45, 22.13, 0.66, 0.00, 0.00, 0.000, 0.000, 0.000, 10:28:09.618
46, 27.25, 4.65, 0.00, 0.00, 0.000, 0.000, 0.000, 10:28:09.618
47, 27.15, 11.23, 0.00, 0.00, 0.000, 0.000, 0.000, 10:28:09.634
48, 17.53, -6.50, 0.00, 0.00, 0.000, 0.000, 0.000, 10:28:09.634
49, 20.85, 5.79, 0.00, 0.00, 0.000, 0.000, 0.000, 10:28:09.634
50, 29.14, 7.27, 0.00, 0.00, 0.000, 0.000, 0.000, 10:28:09.634
51, 26.22, 13.25, 0.00, 0.00, 0.000, 0.000, 0.000, 10:28:09.647
52, 20.27, -10.26, 0.00, 0.00, 0.000, 0.000, 0.000, 10:28:09.648
53, 22.21, 0.28, 0.00, 0.00, 0.000, 0.000, 0.000, 10:28:09.648
54, 28.01, 6.06, 0.00, 0.00, 0.000, 0.000, 0.000, 10:28:09.648
55, 24.12, 8.02, 0.00, 0.00, 0.000, 0.000, 0.000, 10:28:09.670
56, 16.20, 5.43, 0.00, 0.00, 0.000, 0.000, 0.000, 10:28:09.670
57, 20.57, 3.25, 0.00, 0.00, 0.000, 0.000, 0.000, 10:28:09.678
58, 28.68, 8.84, 0.00, 0.00, 0.000, 0.000, 0.000, 10:28:09.678
59, 19.12, 2.44, 0.00, 0.00, 0.000, 0.000, 0.000, 10:28:09.679
60, 16.87, -1.49, 0.00, 0.00, 0.000, 0.000, 0.000, 10:28:09.679
61, 22.69, 5.60, 0.00, 0.00, 0.000, 0.000, 0.000, 10:28:09.693
62, 34.56, 11.31, 0.00, 0.00, 0.000, 0.000, 0.000, 10:28:09.693
63, 25.94, 4.43, 0.00, 0.00, 0.000, 0.000, 0.000, 10:28:09.708
64, 19.66, 0.56, 0.00, 0.00, 0.000, 0.000, 0.000, 10:28:09.708
65, 22.68, 5.22, 0.00, 0.00, 0.000, 0.000, 0.000, 10:28:09.708
66, 29.80, 14.08, 0.00, 0.00, 0.000, 0.000, 0.000, 10:28:09.708
67, 23.86, -1.57, 0.00, 0.00, 0.000, 0.000, 0.000, 10:28:09.723
68, 15.13, -0.43, 0.00, 0.00, 0.000, 0.000, 0.000, 10:28:09.723
69, 24.03, 6.50, 0.00, 0.00, 0.000, 0.000, 0.000, 10:28:09.739
70, 27.63, 7.02, 0.00, 0.00, 0.000, 0.000, 0.000, 10:28:09.739
71, 22.13, 3.23, 0.00, 0.00, 0.000, 0.000, 0.000, 10:28:09.739
72, 19.59, 6.30, 0.00, 0.00, 0.000, 0.000, 0.000, 10:28:09.739
73, 21.71, 2.50, 0.00, 0.00, 0.000, 0.000, 0.000, 10:28:09.753
74, 28.17, 9.32, 0.00, 0.00, 0.000, 0.000, 0.000, 10:28:09.753
75, 23.11, 6.29, 0.00, 0.00, 0.000, 0.000, 0.000, 10:28:09.768
76, 12.21, -0.06, 0.00, 0.00, 0.000, 0.000, 0.000, 10:28:09.768
77, 24.00, 2.02, 0.00, 0.00, 0.000, 0.000, 0.000, 10:28:09.768
78, 31.53, 7.87, 0.00, 0.00, 0.000, 0.000, 0.000, 10:28:09.768
79, 22.43, 5.13, 0.00, 0.00, 0.000, 0.000, 0.000, 10:28:09.783
80, 17.65, -3.77, 0.00, 0.00, 0.000, 0.000, 0.000, 10:28:09.783
81, 21.33, 8.29, 0.00, 0.00, 0.000, 0.000, 0.000, 10:28:09.798
82, 28.74, 15.54, 0.00, 0.00, 0.000, 0.000, 0.000, 10:28:09.798
83, 24.53, 4.73, 0.00, 0.00, 0.000, 0.000, 0.000, 10:28:09.798
84, 19.89, 3.19, 0.00, 0.00, 0.000, 0.000, 0.000, 10:28:09.798
85, 23.89, 6.51, 0.00, 0.00, 0.000, 0.000, 0.000, 10:28:09.813
86, 28.99, 19.09, 0.00, 0.00, 0.000, 0.000, 0.000, 10:28:09.813
87, 27.55, -2.31, 0.00, 0.00, 0.000, 0.000, 0.000, 10:28:09.828
88, 20.01, 2.10, 0.00, 0.00, 0.000, 0.000, 0.000, 10:28:09.828
89, 22.59, 2.70, 0.00, 0.00, 0.000, 0.000, 0.000, 10:28:09.828
90, 29.35, 5.91, 0.00, 0.00, 0.000, 0.000, 0.000, 10:28:09.829
91, 22.65, 2.95, 0.00, 0.00, 0.000, 0.000, 0.000, 10:28:09.843
92, 16.52, 0.32, 0.00, 0.00, 0.000, 0.000, 0.000, 10:28:09.844
93, 20.13, 4.20, 0.00, 0.00, 0.000, 0.000, 0.000, 10:28:09.859
94, 34.50, 15.26, 0.00, 0.00, 0.000, 0.000, 0.000, 10:28:09.859
95, 22.77, 15.39, 0.00, 0.00, 0.000, 0.000, 0.000, 10:28:09.859
96, 13.70, -12.80, 0.00, 0.00, 0.000, 0.000, 0.000, 10:28:09.859
97, 21.33, 0.47, 0.00, 0.00, 0.000, 0.000, 0.000, 10:28:09.888
98, 26.36, 9.49, 0.00, 0.00, 0.000, 0.000, 0.000, 10:28:09.888
99, 23.50, -3.23, 0.00, 0.00, 0.000, 0.000, 0.000, 10:28:09.888
100, 17.08, -0.02, 0.00, 0.00, 0.000, 0.000, 0.000, 10:28:09.888
101, 21.18, 1.04, 0.00, 0.00, 0.000, 0.000, 0.000, 10:28:09.889
102, 29.47, 3.26, 0.00, 0.00, 0.000, 0.000, 0.000, 10:28:09.889
103, 22.30, 1.80, 0.00, 0.00, 0.000, 0.000, 0.000, 10:28:09.903
104, 19.71, -1.09, 0.00, 0.00, 0.000, 0.000, 0.000, 10:28:09.903
105, 19.48, 3.55, 0.00, 0.00, 0.000, 0.000, 0.000, 10:28:09.918
106, 28.92, 7.98, 0.00, 0.00, 0.000, 0.000, 0.000, 10:28:09.918
107, 24.92, 5.09, 0.00, 0.00, 0.000, 0.000, 0.000, 10:28:09.919
108, 17.86, 2.57, 0.00, 0.00, 0.000, 0.000, 0.000, 10:28:09.919
109, 20.17, -4.80, 0.00, 0.00, 0.000, 0.000, 0.000, 10:28:09.933
110, 33.17, 4.22, 0.00, 0.00, 0.000, 0.000, 0.000, 10:28:09.933
111, 24.52, 3.69, 0.00, 0.00, 0.000, 0.000, 0.000, 10:28:09.947
112, 17.80, -1.06, 0.00, 0.00, 0.000, 0.000, 0.000, 10:28:09.948
113, 21.97, 5.88, 0.00, 0.00, 0.000, 0.000, 0.000, 10:28:09.948
114, 28.87, 4.59, 0.00, 0.00, 0.000, 0.000, 0.000, 10:28:09.948
115, 23.21, 3.23, 0.00, 0.00, 0.000, 0.000, 0.000, 10:28:09.963
116, 18.04, -3.61, 0.00, 0.00, 0.000, 0.000, 0.000, 10:28:09.963
117, 24.89, 2.09, 0.00, 0.00, 0.000, 0.000, 0.000, 10:28:09.978
118, 28.77, 5.54, 0.00, 0.00, 0.000, 0.000, 0.000, 10:28:09.978
119, 23.62, 3.52, 0.00, 0.00, 0.000, 0.000, 0.000, 10:28:09.978
120, 17.33, -9.61, 0.00, 0.00, 0.000, 0.000, 0.000, 10:28:09.979
121, 23.26, 3.72, 0.00, 0.00, 0.000, 0.000, 0.000, 10:28:09.993
122, 30.89, 11.36, 0.00, 0.00, 0.000, 0.000, 0.000, 10:28:09.993
123, 26.21, 5.62, 0.00, 0.00, 0.000, 0.000, 0.000, 10:28:10.008
124, 16.87, -3.40, 0.00, 0.00, 0.000, 0.000, 0.000, 10:28:10.008
125, 22.61, 5.54, 0.00, 0.00, 0.000, 0.000, 0.000, 10:28:10.015
126, 30.97, 5.40, 0.00, 0.00, 0.000, 0.000, 0.000, 10:28:10.015
127, 24.72, 6.61, 0.00, 0.00, 0.000, 0.000, 0.000, 10:28:10.023
128, 19.57, 3.82, 0.00, 0.00, 0.000, 0.000, 0.000, 10:28:10.023
129, 22.99, 1.64, 0.00, 0.00, 0.000, 0.000, 0.000, 10:28:10.038
130, 25.66, 4.75, 0.00, 0.00, 0.000, 0.000, 0.000, 10:28:10.038
131, 28.71, 3.53, 0.00, 0.00, 0.000, 0.000, 0.000, 10:28:10.039
132, 21.12, -1.13, 0.00, 0.00, 0.000, 0.000, 0.000, 10:28:10.039
133, 23.87, 5.88, 0.00, 0.00, 0.000, 0.000, 0.000, 10:28:10.053
134, 26.14, 12.76, 0.00, 0.00, 0.000, 0.000, 0.000, 10:28:10.053
135, 21.73, 4.72, 0.00, 0.00, 0.000, 0.000, 0.000, 10:28:10.068
136, 15.46, -4.64, 0.00, 0.00, 0.000, 0.000, 0.000, 10:28:10.068
137, 19.78, 10.25, 0.00, 0.00, 0.000, 0.000, 0.000, 10:28:10.068
138, 24.71, 8.27, 0.00, 0.00, 0.000, 0.000, 0.000, 10:28:10.068
139, 21.73, 2.92, 0.00, 0.00, 0.000, 0.000, 0.000, 10:28:10.083
140, 15.91, 7.65, 0.00, 0.00, 0.000, 0.000, 0.000, 10:28:10.083
141, 22.66, 0.04, 0.00, 0.00, 0.000, 0.000, 0.000, 10:28:10.099
142, 30.65, 4.81, 0.00, 0.00, 0.000, 0.000, 0.000, 10:28:10.099
143, 26.82, 7.01, 0.00, 0.00, 0.000, 0.000, 0.000, 10:28:10.099
144, 15.00, 2.13, 0.00, 0.00, 0.000, 0.000, 0.000, 10:28:10.099
145, 20.12, 2.98, 0.00, 0.00, 0.000, 0.000, 0.000, 10:28:10.114
146, 31.62, 6.96, 0.00, 0.00, 0.000, 0.000, 0.000, 10:28:10.114
147, 25.70, 3.21, 0.00, 0.00, 0.000, 0.000, 0.000, 10:28:10.128
148, 16.23, -1.41, 0.00, 0.00, 0.000, 0.000, 0.000, 10:28:10.128
149, 22.75, 1.66, 0.00, 0.00, 0.000, 0.000, 0.000, 10:28:10.128
150, 27.28, 8.86, 0.00, 0.00, 0.000, 0.000, 0.000, 10:28:10.129
151, 22.27, 3.54, 0.00, 0.00, 0.000, 0.000, 0.000, 10:28:10.143
152, 17.46, -1.53, 0.00, 0.00, 0.000, 0.000, 0.000, 10:28:10.143
153, 20.43, 2.92, 0.00, 0.00, 0.000, 0.000, 0.000, 10:28:10.159
154, 30.26, 7.38, 0.00, 0.00, 0.000, 0.000, 0.000, 10:28:10.159
155, 27.83, 8.35, 0.00, 0.00, 0.000, 0.000, 0.000, 10:28:10.160
156, 17.22, 1.12, 0.00, 0.00, 0.000, 0.000, 0.000, 10:28:10.160
157, 22.32, 4.91, 0.00, 0.00, 0.000, 0.000, 0.000, 10:28:10.174
158, 29.01, 11.88, 0.00, 0.00, 0.000, 0.000, 0.000, 10:28:10.175
159, 23.18, 4.31, 0.00, 0.00, 0.000, 0.000, 0.000, 10:28:10.189
160, 16.92, -1.68, 0.00, 0.00, 0.000, 0.000, 0.000, 10:28:10.189
161, 23.52, 4.72, 0.00, 0.00, 0.000, 0.000, 0.000, 10:28:10.190
162, 30.70, 9.96, 0.00, 0.00, 0.000, 0.000, 0.000, 10:28:10.190
163, 21.59, 10.80, 0.00, 0.00, 0.000, 0.000, 0.000, 10:28:10.203
164, 19.33, -10.33, 0.00, 0.00, 0.000, 0.000, 0.000, 10:28:10.203
165, 24.43, 4.50, 0.00, 0.00, 0.000, 0.000, 0.000, 10:28:10.218
166, 25.24, 5.46, 0.00, 0.00, 0.000, 0.000, 0.000, 10:28:10.218
167, 23.90, 10.95, 0.00, 0.00, 0.000, 0.000, 0.000, 10:28:10.219
168, 14.70, 2.75, 0.00, 0.00, 0.000, 0.000, 0.000, 10:28:10.219
169, 21.80, 6.07, 0.00, 0.00, 0.000, 0.000, 0.000, 10:28:10.233
170, 25.61, 11.91, 0.00, 0.00, 0.000, 0.000, 0.000, 10:28:10.234
171, 25.83, -4.30, 0.00, 0.00, 0.000, 0.000, 0.000, 10:28:10.248
172, 17.34, 4.43, 0.00, 0.00, 0.000, 0.000, 0.000, 10:28:10.248
173, 19.77, 2.92, 0.00, 0.00, 0.000, 0.000, 0.000, 10:28:10.249
174, 26.22, 2.66, 0.00, 0.00, 0.000, 0.000, 0.000, 10:28:10.249
175, 24.15, 2.15, 0.00, 0.00, 0.000, 0.000, 0.000, 10:28:10.263
176, 18.67, 2.60, 0.00, 0.00, 0.000, 0.000, 0.000, 10:28:10.263
177, 23.58, 3.86, 0.00, 0.00, 0.000, 0.000, 0.000, 10:28:10.278
178, 28.17, 8.38, 0.00, 0.00, 0.000, 0.000, 0.000, 10:28:10.278
179, 22.80, 2.31, 0.00, 0.00, 0.000, 0.000, 0.000, 10:28:10.279
180, 23.42, 2.51, 0.00, 0.00, 0.000, 0.000, 0.000, 10:28:10.279
181, 25.29, 4.50, 0.00, 0.00, 0.000, 0.000, 0.000, 10:28:10.293
182, 27.31, 6.19, 0.00, 0.00, 0.000, 0.000, 0.000, 10:28:10.293
183, 23.83, 4.02, 0.00, 0.00, 0.000, 0.000, 0.000, 10:28:10.323
184, 17.90, 2.31, 0.00, 0.00, 0.000, 0.000, 0.000, 10:28:10.323
185, 18.62, 13.11, 0.00, 0.00, 0.000, 0.000, 0.000, 10:28:10.324
186, 31.57, 2.65, 0.00, 0.00, 0.000, 0.000, 0.000, 10:28:10.324
187, 24.51, 3.43, 0.00, 0.00, 0.000, 0.000, 0.000, 10:28:10.324
188, 17.03, -2.49, 0.00, 0.00, 0.000, 0.000, 0.000, 10:28:10.324
189, 22.33, 4.30, 0.00, 0.00, 0.000, 0.000, 0.000, 10:28:10.325
190, 27.09, 11.20, 0.00, 0.00, 0.000, 0.000, 0.000, 10:28:10.325
191, 25.72, 5.33, 0.00, 0.00, 0.000, 0.000, 0.000, 10:28:10.338
192, 17.40, -0.90, 0.00, 0.00, 0.000, 0.000, 0.000, 10:28:10.338
193, 20.27, -4.56, 0.00, 0.00, 0.000, 0.000, 0.000, 10:28:10.353
194, 30.68, 7.14, 0.00, 0.00, 0.000, 0.000, 0.000, 10:28:10.353
195, 22.30, 4.61, 0.00, 0.00, 0.000, 0.000, 0.000, 10:28:10.368
196, 15.95, 3.34, 0.00, 0.00, 0.000, 0.000, 0.000, 10:28:10.368
197, 17.26, 7.42, 0.00, 0.00, 0.000, 0.000, 0.000, 10:28:10.369
198, 26.05, 9.10, 0.00, 0.00, 0.000, 0.000, 0.000, 10:28:10.369
199, 21.77, 4.14, 0.00, 0.00, 0.000, 0.000, 0.000, 10:28:10.384
200, 15.32, 1.09, 0.00, 0.00, 0.000, 0.000, 0.000, 10:28:10.384
0, 19.08, 2.75, 0.00, 0.00, 0.000, 0.000, 0.000, 10:28:10.384
1, 26.86, 7.47, 0.00, 0.00, 0.000, 0.000, 0.000, 10:28:10.398
2, 22.86, 5.50, 0.00, 0.00, 0.000, 0.000, 0.000, 10:28:10.398
3, 18.30, 2.46, 0.00, 0.00, 0.000, 0.000, 0.000, 10:28:10.413
4, 20.37, 6.10, 0.00, 0.00, 0.000, 0.000, 0.000, 10:28:10.413
5, 27.79, 15.27, 0.00, 0.00, 0.000, 0.000, 0.000, 10:28:10.413
6, 20.27, -1.28, 0.00, 0.00, 0.000, 0.000, 0.000, 10:28:10.413
7, 17.06, -6.39, 0.00, 0.00, 0.000, 0.000, 0.000, 10:28:10.444
8, 17.11, 5.34, 0.00, 0.00, 0.000, 0.000, 0.000, 10:28:10.444
9, 24.66, 11.69, 0.00, 0.00, 0.000, 0.000, 0.000, 10:28:10.444
10, 21.46, -0.62, 0.00, 0.00, 0.000, 0.000, 0.000, 10:28:10.444
11, 16.39, 4.02, 0.00, 0.00, 0.000, 0.000, 0.000, 10:28:10.444
12, 22.24, 7.77, 0.00, 0.00, 0.000, 0.000, 0.000, 10:28:10.444
13, 28.01, 6.98, 0.00, 0.00, 0.000, 0.000, 0.000, 10:28:10.458
14, 21.84, 3.14, 0.00, 0.00, 0.000, 0.000, 0.000, 10:28:10.458
15, 16.72, 4.46, 0.00, 0.00, 0.000, 0.000, 0.000, 10:28:10.473
16, 20.69, 5.57, 0.00, 0.00, 0.000, 0.000, 0.000, 10:28:10.473
17, 28.61, 8.75, 0.00, 0.00, 0.000, 0.000, 0.000, 10:28:10.473
18, 24.77, 5.18, 0.00, 0.00, 0.000, 0.000, 0.000, 10:28:10.474
19, 16.37, 1.64, 0.00, 0.00, 0.000, 0.000, 0.000, 10:28:10.487
20, 19.20, 0.46, 0.00, 0.00, 0.000, 0.000, 0.000, 10:28:10.487
21, 27.85, 8.03, 0.00, 0.00, 0.000, 0.000, 0.000, 10:28:10.503
22, 22.56, 11.01, 0.00, 0.00, 0.000, 0.000, 0.000, 10:28:10.504
23, 18.06, 0.81, 0.00, 0.00, 0.000, 0.000, 0.000, 10:28:10.504
24, 19.75, 2.37, 0.00, 0.00, 0.000, 0.000, 0.000, 10:28:10.504
25, 28.29, 5.76, 0.00, 0.00, 0.000, 0.000, 0.000, 10:28:10.524
26, 23.13, 8.50, 0.00, 0.00, 0.000, 0.000, 0.000, 10:28:10.524
27, 15.80, 3.30, 0.00, 0.00, 0.000, 0.000, 0.000, 10:28:10.532
28, 14.76, 5.76, 0.00, 0.00, 0.000, 0.000, 0.000, 10:28:10.532
29, 25.92, 4.86, 0.00, 0.00, 0.000, 0.000, 0.000, 10:28:10.533
30, 21.87, 3.42, 0.00, 0.00, 0.000, 0.000, 0.000, 10:28:10.533
31, 15.27, 6.38, 0.00, 0.00, 0.000, 0.000, 0.000, 10:28:10.549
32, 17.47, -1.62, 0.00, 0.00, 0.000, 0.000, 0.000, 10:28:10.549
33, 26.12, 6.13, 0.00, 0.00, 0.000, 0.000, 0.000, 10:28:10.563
34, 22.35, 3.75, 0.00, 0.00, 0.000, 0.000, 0.000, 10:28:10.563
35, 13.58, -1.01, 0.00, 0.00, 0.000, 0.000, 0.000, 10:28:10.563
36, 19.65, 5.44, 0.00, 0.00, 0.000, 0.000, 0.000, 10:28:10.563
37, 27.26, 5.34, 0.00, 0.00, 0.000, 0.000, 0.000, 10:28:10.578
38, 22.02, 5.02, 0.00, 0.00, 0.000, 0.000, 0.000, 10:28:10.578
39, 15.30, -1.39, 0.00, 0.00, 0.000, 0.000, 0.000, 10:28:10.593
40, 17.37, 1.94, 0.00, 0.00, 0.000, 0.000, 0.000, 10:28:10.593
41, 25.49, 8.48, 0.00, 0.00, 0.000, 0.000, 0.000, 10:28:10.593
42, 22.88, 4.06, 0.00, 0.00, 0.000, 0.000, 0.000, 10:28:10.593
43, 16.64, 2.63, 0.00, 0.00, 0.000, 0.000, 0.000, 10:28:10.608
44, 19.12, 5.63, 0.00, 0.00, 0.000, 0.000, 0.000, 10:28:10.608
45, 25.43, 7.69, 0.00, 0.00, 0.000, 0.000, 0.000, 10:28:10.623
46, 20.42, 2.40, 0.00, 0.00, 0.000, 0.000, 0.000, 10:28:10.623
47, 18.77, -1.14, 0.00, 0.00, 0.000, 0.000, 0.000, 10:28:10.624
48, 18.80, 10.46, 0.00, 0.00, 0.000, 0.000, 0.000, 10:28:10.624
49, 21.79, 5.16, 0.00, 0.00, 0.000, 0.000, 0.000, 10:28:10.638
50, 24.36, 14.48, 0.00, 0.00, 0.000, 0.000, 0.000, 10:28:10.638
51, 15.93, -0.19, 0.00, 0.00, 0.000, 0.000, 0.000, 10:28:10.653
52, 21.62, -7.20, 0.00, 0.00, 0.000, 0.000, 0.000, 10:28:10.654
53, 24.01, 11.01, 0.00, 0.00, 0.000, 0.000, 0.000, 10:28:10.654
54, 20.78, 3.32, 0.00, 0.00, 0.000, 0.000, 0.000, 10:28:10.654
55, 15.27, 0.46, 0.00, 0.00, 0.000, 0.000, 0.000, 10:28:10.668
56, 18.63, 2.84, 0.00, 0.00, 0.000, 0.000, 0.000, 10:28:10.668
57, 27.73, 5.57, 0.00, 0.00, 0.000, 0.000, 0.000, 10:28:10.685
58, 26.31, 6.53, 0.00, 0.00, 0.000, 0.000, 0.000, 10:28:10.685
59, 19.83, 0.67, 0.00, 0.00, 0.000, 0.000, 0.000, 10:28:10.685
60, 18.51, 1.33, 0.00, 0.00, 0.000, 0.000, 0.000, 10:28:10.685
61, 24.36, 5.87, 0.00, 0.00, 0.000, 0.000, 0.000, 10:28:10.699
62, 23.12, 4.61, 0.00, 0.00, 0.000, 0.000, 0.000, 10:28:10.699
63, 12.99, -2.47, 0.00, 0.00, 0.000, 0.000, 0.000, 10:28:10.713
64, 19.05, 3.16, 0.00, 0.00, 0.000, 0.000, 0.000, 10:28:10.714
65, 25.73, 7.51, 0.00, 0.00, 0.000, 0.000, 0.000, 10:28:10.714
66, 20.95, 1.88, 0.00, 0.00, 0.000, 0.000, 0.000, 10:28:10.714
67, 13.25, -0.74, 0.00, 0.00, 0.000, 0.000, 0.000, 10:28:10.728
68, 14.81, -5.02, 0.00, 0.00, 0.000, 0.000, 0.000, 10:28:10.728
69, 21.56, 6.43, 0.00, 0.00, 0.000, 0.000, 0.000, 10:28:10.743
70, 20.87, 2.85, 0.00, 0.00, 0.000, 0.000, 0.000, 10:28:10.743
71, 13.37, -1.46, 0.00, 0.00, 0.000, 0.000, 0.000, 10:28:10.743
72, 17.83, 4.36, 0.00, 0.00, 0.000, 0.000, 0.000, 10:28:10.743
73, 21.33, 18.81, 0.00, 0.00, 0.000, 0.000, 0.000, 10:28:10.758
74, 22.86, -13.00, 0.00, 0.00, 0.000, 0.000, 0.000, 10:28:10.758
75, 17.76, 7.41, 0.00, 0.00, 0.000, 0.000, 0.000, 10:28:10.773
76, 16.61, 5.20, 0.00, 0.00, 0.000, 0.000, 0.000, 10:28:10.773
77, 23.89, 13.79, 0.00, 0.00, 0.000, 0.000, 0.000, 10:28:10.774
78, 21.44, 4.73, 0.00, 0.00, 0.000, 0.000, 0.000, 10:28:10.774
79, 10.87, -3.74, 0.00, 0.00, 0.000, 0.000, 0.000, 10:28:10.788
80, 16.40, 1.70, 0.00, 0.00, 0.000, 0.000, 0.000, 10:28:10.788
81, 21.40, 4.49, 0.00, 0.00, 0.000, 0.000, 0.000, 10:28:10.803
82, 26.26, 3.21, 0.00, 0.00, 0.000, 0.000, 0.000, 10:28:10.804
83, 17.18, 1.01, 0.00, 0.00, 0.000, 0.000, 0.000, 10:28:10.804
84, 15.66, 1.52, 0.00, 0.00, 0.000, 0.000, 0.000, 10:28:10.804
85, 22.82, 4.87, 0.00, 0.00, 0.000, 0.000, 0.000, 10:28:10.818
86, 22.43, 4.75, 0.00, 0.00, 0.000, 0.000, 0.000, 10:28:10.818
87, 15.81, -2.75, 0.00, 0.00, 0.000, 0.000, 0.000, 10:28:10.833
88, 15.52, 5.52, 0.00, 0.00, 0.000, 0.000, 0.000, 10:28:10.833
89, 23.23, 1.98, 0.00, 0.00, 0.000, 0.000, 0.000, 10:28:10.833
90, 23.72, -0.26, 0.00, 0.00, 0.000, 0.000, 0.000, 10:28:10.833
91, 18.52, -1.52, 0.00, 0.00, 0.000, 0.000, 0.000, 10:28:10.848
92, 15.54, 3.57, 0.00, 0.00, 0.000, 0.000, 0.000, 10:28:10.848
93, 23.18, 5.69, 0.00, 0.00, 0.000, 0.000, 0.000, 10:28:10.862
94, 23.60, 4.52, 0.00, 0.00, 0.000, 0.000, 0.000, 10:28:10.863
95, 16.08, 5.47, 0.00, 0.00, 0.000, 0.000, 0.000, 10:28:10.863
96, 17.04, -10.68, 0.00, 0.00, 0.000, 0.000, 0.000, 10:28:10.863
97, 24.15, 6.55, 0.00, 0.00, 0.000, 0.000, 0.000, 10:28:10.878
98, 22.73, 5.34, 0.00, 0.00, 0.000, 0.000, 0.000, 10:28:10.878
99, 15.55, 6.57, 0.00, 0.00, 0.000, 0.000, 0.000, 10:28:10.893
100, 18.37, 5.69, 0.00, 0.00, 0.000, 0.000, 0.000, 10:28:10.894
101, 27.21, 4.32, 0.00, 0.00, 0.000, 0.000, 0.000, 10:28:10.894
102, 24.26, 5.77, 0.00, 0.00, 0.000, 0.000, 0.000, 10:28:10.894
103, 16.87, -0.79, 0.00, 0.00, 0.000, 0.000, 0.000, 10:28:10.908
104, 19.92, 0.94, 0.00, 0.00, 0.000, 0.000, 0.000, 10:28:10.908
105, 24.67, 5.45, 0.00, 0.00, 0.000, 0.000, 0.000, 10:28:10.922
106, 22.13, 9.54, 0.00, 0.00, 0.000, 0.000, 0.000, 10:28:10.922
107, 18.21, -12.38, 0.00, 0.00, 0.000, 0.000, 0.000, 10:28:10.938
108, 20.13, 0.94, 0.00, 0.00, 0.000, 0.000, 0.000, 10:28:10.939
109, 25.59, 4.13, 0.00, 0.00, 0.000, 0.000, 0.000, 10:28:10.939
110, 26.95, 5.41, 0.00, 0.00, 0.000, 0.000, 0.000, 10:28:10.939
111, 19.44, 1.75, 0.00, 0.00, 0.000, 0.000, 0.000, 10:28:10.952
112, 20.23, 3.12, 0.00, 0.00, 0.000, 0.000, 0.000, 10:28:10.952
113, 22.64, 16.83, 0.00, 0.00, 0.000, 0.000, 0.000, 10:28:10.953
114, 23.57, 1.04, 0.00, 0.00, 0.000, 0.000, 0.000, 10:28:10.953
115, 18.65, -9.69, 0.00, 0.00, 0.000, 0.000, 0.000, 10:28:10.968
116, 17.72, 3.08, 0.00, 0.00, 0.000, 0.000, 0.000, 10:28:10.968
117, 26.72, 5.90, 0.00, 0.00, 0.000, 0.000, 0.000, 10:28:10.983
118, 21.04, 2.54, 0.00, 0.00, 0.000, 0.000, 0.000, 10:28:10.983
119, 16.84, 1.75, 0.00, 0.00, 0.000, 0.000, 0.000, 10:28:10.998
120, 17.51, 4.86, 0.00, 0.00, 0.000, 0.000, 0.000, 10:28:10.998
121, 26.12, 8.51, 0.00, 0.00, 0.000, 0.000, 0.000, 10:28:10.999
122, 23.71, -0.08, 0.00, 0.00, 0.000, 0.000, 0.000, 10:28:10.999
123, 16.46, -0.72, 0.00, 0.00, 0.000, 0.000, 0.000, 10:28:11.013
124, 19.90, 8.77, 0.00, 0.00, 0.000, 0.000, 0.000, 10:28:11.013
125, 25.56, 10.52, 0.00, 0.00, 0.000, 0.000, 0.000, 10:28:11.013
126, 23.20, 6.94, 0.00, 0.00, 0.000, 0.000, 0.000, 10:28:11.013
127, 19.74, -3.36, 0.00, 0.00, 0.000, 0.000, 0.000, 10:28:11.028
128, 18.27, 1.14, 0.00, 0.00, 0.000, 0.000, 0.000, 10:28:11.028
129, 28.76, 5.14, 0.00, 0.00, 0.000, 0.000, 0.000, 10:28:11.058
130, 26.54, 5.69, 0.00, 0.00, 0.000, 0.000, 0.000, 10:28:11.058
131, 17.87, 3.34, 0.00, 0.00, 0.000, 0.000, 0.000, 10:28:11.058
132, 21.70, 4.10, 0.00, 0.00, 0.000, 0.000, 0.000, 10:28:11.058
133, 25.26, 8.07, 0.00, 0.00, 0.000, 0.000, 0.000, 10:28:11.060
134, 24.25, 4.80, 0.00, 0.00, 0.000, 0.000, 0.000, 10:28:11.060
135, 16.04, 9.97, 0.00, 0.00, 0.000, 0.000, 0.000, 10:28:11.060
136, 18.83, 1.87, 0.00, 0.00, 0.000, 0.000, 0.000, 10:28:11.060
137, 29.83, 3.51, 0.00, 0.00, 0.000, 0.000, 0.000, 10:28:11.073
138, 23.53, 7.69, 0.00, 0.00, 0.000, 0.000, 0.000, 10:28:11.073
139, 19.96, 2.38, 0.00, 0.00, 0.000, 0.000, 0.000, 10:28:11.088
140, 18.55, 1.18, 0.00, 0.00, 0.000, 0.000, 0.000, 10:28:11.088
141, 23.43, 7.98, 0.00, 0.00, 0.000, 0.000, 0.000, 10:28:11.103
142, 24.43, 9.74, 0.00, 0.00, 0.000, 0.000, 0.000, 10:28:11.104
143, 18.67, 2.78, 0.00, 0.00, 0.000, 0.000, 0.000, 10:28:11.118
144, 18.51, 7.22, 0.00, 0.00, 0.000, 0.000, 0.000, 10:28:11.118
145, 30.22, 1.98, 0.00, 0.00, 0.000, 0.000, 0.000, 10:28:11.119
146, 26.84, 9.10, 0.00, 0.00, 0.000, 0.000, 0.000, 10:28:11.119
147, 15.97, 3.91, 0.00, 0.00, 0.000, 0.000, 0.000, 10:28:11.134
148, 18.99, 5.71, 0.00, 0.00, 0.000, 0.000, 0.000, 10:28:11.134
149, 26.17, 8.70, 0.00, 0.00, 0.000, 0.000, 0.000, 10:28:11.140
150, 27.50, 6.01, 0.00, 0.00, 0.000, 0.000, 0.000, 10:28:11.140
151, 19.07, 2.34, 0.00, 0.00, 0.000, 0.000, 0.000, 10:28:11.148
152, 20.55, 1.79, 0.00, 0.00, 0.000, 0.000, 0.000, 10:28:11.148
153, 22.73, 8.08, 0.00, 0.00, 0.000, 0.000, 0.000, 10:28:11.178
154, 21.54, 17.42, 0.00, 0.00, 0.000, 0.000, 0.000, 10:28:11.178
155, 16.23, -1.29, 0.00, 0.00, 0.000, 0.000, 0.000, 10:28:11.179
156, 16.89, -2.96, 0.00, 0.00, 0.000, 0.000, 0.000, 10:28:11.179
157, 26.69, 9.19, 0.00, 0.00, 0.000, 0.000, 0.000, 10:28:11.179
158, 27.03, 5.60, 0.00, 0.00, 0.000, 0.000, 0.000, 10:28:11.179
159, 17.89, 3.26, 0.00, 0.00, 0.000, 0.000, 0.000, 10:28:11.180
160, 17.10, 7.84, 0.00, 0.00, 0.000, 0.000, 0.000, 10:28:11.180
161, 26.55, 12.51, 0.00, 0.00, 0.000, 0.000, 0.000, 10:28:11.193
162, 27.34, 4.62, 0.00, 0.00, 0.000, 0.000, 0.000, 10:28:11.193
163, 19.63, 4.30, 0.00, 0.00, 0.000, 0.000, 0.000, 10:28:11.208
164, 17.54, 5.96, 0.00, 0.00, 0.000, 0.000, 0.000, 10:28:11.208
165, 30.31, 6.93, 0.00, 0.00, 0.000, 0.000, 0.000, 10:28:11.223
166, 24.90, 3.69, 0.00, 0.00, 0.000, 0.000, 0.000, 10:28:11.223
167, 22.27, -2.70, 0.00, 0.00, 0.000, 0.000, 0.000, 10:28:11.238
168, 16.19, 4.66, 0.00, 0.00, 0.000, 0.000, 0.000, 10:28:11.238
169, 25.56, 9.65, 0.00, 0.00, 0.000, 0.000, 0.000, 10:28:11.239
170, 24.35, 8.08, 0.00, 0.00, 0.000, 0.000, 0.000, 10:28:11.239
171, 17.83, 3.70, 0.00, 0.00, 0.000, 0.000, 0.000, 10:28:11.253
172, 19.95, 7.58, 0.00, 0.00, 0.000, 0.000, 0.000, 10:28:11.253
173, 26.47, 8.20, 0.00, 0.00, 0.000, 0.000, 0.000, 10:28:11.253
174, 20.75, 1.69, 0.00, 0.00, 0.000, 0.000, 0.000, 10:28:11.253
175, 18.16, 4.80, 0.00, 0.00, 0.000, 0.000, 0.000, 10:28:11.268
176, 22.36, -1.40, 0.00, 0.00, 0.000, 0.000, 0.000, 10:28:11.268
177, 24.62, 5.67, 0.00, 0.00, 0.000, 0.000, 0.000, 10:28:11.283
178, 25.09, 5.39, 0.00, 0.00, 0.000, 0.000, 0.000, 10:28:11.283
179, 15.60, 4.21, 0.00, 0.00, 0.000, 0.000, 0.000, 10:28:11.284
180, 20.09, 3.58, 0.00, 0.00, 0.000, 0.000, 0.000, 10:28:11.284
181, 24.56, 9.98, 0.00, 0.00, 0.000, 0.000, 0.000, 10:28:11.298
182, 23.71, 6.99, 0.00, 0.00, 0.000, 0.000, 0.000, 10:28:11.298
183, 15.91, -2.89, 0.00, 0.00, 0.000, 0.000, 0.000, 10:28:11.313
184, 20.88, 5.32, 0.00, 0.00, 0.000, 0.000, 0.000, 10:28:11.313
185, 26.32, 8.91, 0.00, 0.00, 0.000, 0.000, 0.000, 10:28:11.313
186, 26.04, 8.83, 0.00, 0.00, 0.000, 0.000, 0.000, 10:28:11.313
187, 20.74, 2.89, 0.00, 0.00, 0.000, 0.000, 0.000, 10:28:11.329
188, 19.09, 6.31, 0.00, 0.00, 0.000, 0.000, 0.000, 10:28:11.329
189, 22.96, 5.98, 0.00, 0.00, 0.000, 0.000, 0.000, 10:28:11.343
190, 24.28, 5.53, 0.00, 0.00, 0.000, 0.000, 0.000, 10:28:11.343
191, 15.79, 4.37, 0.00, 0.00, 0.000, 0.000, 0.000, 10:28:11.343
192, 21.68, 6.02, 0.00, 0.00, 0.000, 0.000, 0.000, 10:28:11.343
193, 25.34, 20.25, 0.00, 0.00, 0.000, 0.000, 0.000, 10:28:11.358
194, 26.11, 6.55, 0.00, 0.00, 0.000, 0.000, 0.000, 10:28:11.358
195, 17.79, -8.57, 0.00, 0.00, 0.000, 0.000, 0.000, 10:28:11.373
196, 17.83, 4.46, 0.00, 0.00, 0.000, 0.000, 0.000, 10:28:11.373
197, 24.89, 11.00, 0.00, 0.00, 0.000, 0.000, 0.000, 10:28:11.373
198, 23.10, 3.64, 0.00, 0.00, 0.000, 0.000, 0.000, 10:28:11.373
199, 17.07, 0.46, 0.00, 0.00, 0.000, 0.000, 0.000, 10:28:11.388
200, 13.87, 5.52, 0.00, 0.00, 0.000, 0.000, 0.000, 10:28:11.388
0, 24.21, -0.16, 0.00, 0.00, 0.000, 0.000, 0.000, 10:28:11.389
1, 24.71, 7.16, 0.00, 0.00, 0.000, 0.000, 0.000, 10:28:11.403
2, 15.39, 0.00, 0.00, 0.00, 0.000, 0.000, 0.000, 10:28:11.403
3, 16.10, 3.28, 0.00, 0.00, 0.000, 0.000, 0.000, 10:28:11.418
4, 22.34, 7.69, 0.00, 0.00, 0.000, 0.000, 0.000, 10:28:11.418
5, 27.45, 13.84, 0.00, 0.00, 0.000, 0.000, 0.000, 10:28:11.418
6, 19.22, -2.91, 0.00, 0.00, 0.000, 0.000, 0.000, 10:28:11.418
7, 17.13, 3.14, 0.00, 0.00, 0.000, 0.000, 0.000, 10:28:11.440
8, 25.42, 4.74, 0.00, 0.00, 0.000, 0.000, 0.000, 10:28:11.440
9, 20.41, 5.81, 0.00, 0.00, 0.000, 0.000, 0.000, 10:28:11.448
10, 19.90, -0.56, 0.00, 0.00, 0.000, 0.000, 0.000, 10:28:11.448
11, 16.40, 3.48, 0.00, 0.00, 0.000, 0.000, 0.000, 10:28:11.448
12, 22.49, 7.01, 0.00, 0.00, 0.000, 0.000, 0.000, 10:28:11.448
13, 24.91, 2.27, 0.00, 0.00, 0.000, 0.000, 0.000, 10:28:11.463
14, 15.21, 4.03, 0.00, 0.00, 0.000, 0.000, 0.000, 10:28:11.463
15, 18.17, 2.62, 0.00, 0.00, 0.000, 0.000, 0.000, 10:28:11.478
16, 26.13, 5.33, 0.00, 0.00, 0.000, 0.000, 0.000, 10:28:11.478
17, 25.09, 8.53, 0.00, 0.00, 0.000, 0.000, 0.000, 10:28:11.478
18, 18.65, -2.00, 0.00, 0.00, 0.000, 0.000, 0.000, 10:28:11.478
19, 18.80, -2.20, 0.00, 0.00, 0.000, 0.000, 0.000, 10:28:11.493
20, 25.14, 7.42, 0.00, 0.00, 0.000, 0.000, 0.000, 10:28:11.493
21, 24.25, 5.21, 0.00, 0.00, 0.000, 0.000, 0.000, 10:28:11.508
22, 20.33, 1.12, 0.00, 0.00, 0.000, 0.000, 0.000, 10:28:11.508
23, 18.13, 6.74, 0.00, 0.00, 0.000, 0.000, 0.000, 10:28:11.508
24, 26.56, 5.43, 0.00, 0.00, 0.000, 0.000, 0.000, 10:28:11.509
25, 24.80, 4.49, 0.00, 0.00, 0.000, 0.000, 0.000, 10:28:11.523
26, 14.53, 5.07, 0.00, 0.00, 0.000, 0.000, 0.000, 10:28:11.523
27, 18.82, 2.94, 0.00, 0.00, 0.000, 0.000, 0.000, 10:28:11.553
28, 25.50, 6.88, 0.00, 0.00, 0.000, 0.000, 0.000, 10:28:11.553
29, 24.04, 6.21, 0.00, 0.00, 0.000, 0.000, 0.000, 10:28:11.553
30, 18.89, -0.42, 0.00, 0.00, 0.000, 0.000, 0.000, 10:28:11.553
31, 18.53, 4.21, 0.00, 0.00, 0.000, 0.000, 0.000, 10:28:11.554
32, 23.51, 8.77, 0.00, 0.00, 0.000, 0.000, 0.000, 10:28:11.554
33, 27.02, 3.57, 0.00, 0.00, 0.000, 0.000, 0.000, 10:28:11.555
34, 17.75, 9.54, 0.00, 0.00, 0.000, 0.000, 0.000, 10:28:11.555
35, 16.06, -3.57, 0.00, 0.00, 0.000, 0.000, 0.000, 10:28:11.567
36, 21.32, 4.52, 0.00, 0.00, 0.000, 0.000, 0.000, 10:28:11.567
37, 27.77, 2.77, 0.00, 0.00, 0.000, 0.000, 0.000, 10:28:11.583
38, 16.39, -12.25, 0.00, 0.00, 0.000, 0.000, 0.000, 10:28:11.583
39, 18.88, 4.91, 0.00, 0.00, 0.000, 0.000, 0.000, 10:28:11.613
40, 22.78, 11.00, 0.00, 0.00, 0.000, 0.000, 0.000, 10:28:11.613
41, 24.03, 7.28, 0.00, 0.00, 0.000, 0.000, 0.000, 10:28:11.613
42, 19.24, 3.87, 0.00, 0.00, 0.000, 0.000, 0.000, 10:28:11.613
43, 23.45, -0.13, 0.00, 0.00, 0.000, 0.000, 0.000, 10:28:11.614
44, 24.13, 7.03, 0.00, 0.00, 0.000, 0.000, 0.000, 10:28:11.614
45, 19.76, 6.50, 0.00, 0.00, 0.000, 0.000, 0.000, 10:28:11.615
46, 14.44, 2.57, 0.00, 0.00, 0.000, 0.000, 0.000, 10:28:11.615
47, 18.37, 0.07, 0.00, 0.00, 0.000, 0.000, 0.000, 10:28:11.628
48, 23.28, 5.18, 0.00, 0.00, 0.000, 0.000, 0.000, 10:28:11.628
49, 27.25, 7.14, 0.00, 0.00, 0.000, 0.000, 0.000, 10:28:11.643
50, 15.60, 2.68, 0.00, 0.00, 0.000, 0.000, 0.000, 10:28:11.643
51, 18.55, 1.73, 0.00, 0.00, 0.000, 0.000, 0.000, 10:28:11.673
52, 21.94, 11.17, 0.00, 0.00, 0.000, 0.000, 0.000, 10:28:11.673
53, 25.08, -5.89, 0.00, 0.00, 0.000, 0.000, 0.000, 10:28:11.673
54, 15.05, -2.44, 0.00, 0.00, 0.000, 0.000, 0.000, 10:28:11.673
55, 13.30, 4.34, 0.00, 0.00, 0.000, 0.000, 0.000, 10:28:11.674
56, 26.44, 4.22, 0.00, 0.00, 0.000, 0.000, 0.000, 10:28:11.674
57, 23.06, 4.00, 0.00, 0.00, 0.000, 0.000, 0.000, 10:28:11.674
58, 17.20, -0.50, 0.00, 0.00, 0.000, 0.000, 0.000, 10:28:11.675
59, 16.48, 0.31, 0.00, 0.00, 0.000, 0.000, 0.000, 10:28:11.688
60, 24.66, 7.64, 0.00, 0.00, 0.000, 0.000, 0.000, 10:28:11.688
61, 26.94, 3.91, 0.00, 0.00, 0.000, 0.000, 0.000, 10:28:11.703
62, 15.72, 4.44, 0.00, 0.00, 0.000, 0.000, 0.000, 10:28:11.703
63, 15.62, 4.88, 0.00, 0.00, 0.000, 0.000, 0.000, 10:28:11.718
64, 24.19, 7.48, 0.00, 0.00, 0.000, 0.000, 0.000, 10:28:11.718
65, 23.09, 4.53, 0.00, 0.00, 0.000, 0.000, 0.000, 10:28:11.719
66, 16.38, 4.23, 0.00, 0.00, 0.000, 0.000, 0.000, 10:28:11.719
67, 19.15, 1.91, 0.00, 0.00, 0.000, 0.000, 0.000, 10:28:11.734
68, 22.20, 7.95, 0.00, 0.00, 0.000, 0.000, 0.000, 10:28:11.734
69, 27.33, 7.99, 0.00, 0.00, 0.000, 0.000, 0.000, 10:28:11.748
70, 20.09, 5.29, 0.00, 0.00, 0.000, 0.000, 0.000, 10:28:11.748
71, 19.37, 2.08, 0.00, 0.00, 0.000, 0.000, 0.000, 10:28:11.748
72, 21.18, 23.56, 0.00, 0.00, 0.000, 0.000, 0.000, 10:28:11.748
73, 21.36, -1.84, 0.00, 0.00, 0.000, 0.000, 0.000, 10:28:11.763
74, 23.05, -10.01, 0.00, 0.00, 0.000, 0.000, 0.000, 10:28:11.763
75, 19.56, 0.40, 0.00, 0.00, 0.000, 0.000, 0.000, 10:28:11.778
76, 24.02, 3.81, 0.00, 0.00, 0.000, 0.000, 0.000, 10:28:11.778
77, 25.17, 5.39, 0.00, 0.00, 0.000, 0.000, 0.000, 10:28:11.779
78, 17.11, -1.11, 0.00, 0.00, 0.000, 0.000, 0.000, 10:28:11.779
79, 17.76, 3.14, 0.00, 0.00, 0.000, 0.000, 0.000, 10:28:11.793
80, 24.51, 9.09, 0.00, 0.00, 0.000, 0.000, 0.000, 10:28:11.793
81, 21.79, 7.49, 0.00, 0.00, 0.000, 0.000, 0.000, 10:28:11.808
82, 19.72, 2.77, 0.00, 0.00, 0.000, 0.000, 0.000, 10:28:11.808
83, 18.35, 2.57, 0.00, 0.00, 0.000, 0.000, 0.000, 10:28:11.808
84, 22.91, 6.08, 0.00, 0.00, 0.000, 0.000, 0.000, 10:28:11.808
85, 23.74, 9.19, 0.00, 0.00, 0.000, 0.000, 0.000, 10:28:11.823
86, 16.01, 0.64, 0.00, 0.00, 0.000, 0.000, 0.000, 10:28:11.823
87, 16.37, -0.96, 0.00, 0.00, 0.000, 0.000, 0.000, 10:28:11.853
88, 26.01, 14.46, 0.00, 0.00, 0.000, 0.000, 0.000, 10:28:11.853
89, 23.27, 6.26, 0.00, 0.00, 0.000, 0.000, 0.000, 10:28:11.853
90, 16.80, -0.01, 0.00, 0.00, 0.000, 0.000, 0.000, 10:28:11.854
91, 15.35, 4.49, 0.00, 0.00, 0.000, 0.000, 0.000, 10:28:11.854
92, 21.06, 9.95, 0.00, 0.00, 0.000, 0.000, 0.000, 10:28:11.854
93, 24.99, -2.60, 0.00, 0.00, 0.000, 0.000, 0.000, 10:28:11.855
94, 17.36, 0.93, 0.00, 0.00, 0.000, 0.000, 0.000, 10:28:11.855
95, 16.03, 2.59, 0.00, 0.00, 0.000, 0.000, 0.000, 10:28:11.875
96, 18.47, 3.93, 0.00, 0.00, 0.000, 0.000, 0.000, 10:28:11.875
97, 23.73, 3.31, 0.00, 0.00, 0.000, 0.000, 0.000, 10:28:11.883
98, 18.65, 2.63, 0.00, 0.00, 0.000, 0.000, 0.000, 10:28:11.883
99, 17.88, 4.85, 0.00, 0.00, 0.000, 0.000, 0.000, 10:28:11.898
100, 22.53, 4.18, 0.00, 0.00, 0.000, 0.000, 0.000, 10:28:11.898
101, 25.42, 4.60, 0.00, 0.00, 0.000, 0.000, 0.000, 10:28:11.898
102, 17.51, -0.10, 0.00, 0.00, 0.000, 0.000, 0.000, 10:28:11.898
103, 17.92, 1.18, 0.00, 0.00, 0.000, 0.000, 0.000, 10:28:11.914
104, 24.00, 5.54, 0.00, 0.00, 0.000, 0.000, 0.000, 10:28:11.916
105, 22.54, 3.95, 0.00, 0.00, 0.000, 0.000, 0.000, 10:28:11.928
106, 19.34, -0.13, 0.00, 0.00, 0.000, 0.000, 0.000, 10:28:11.928
107, 16.72, 1.91, 0.00, 0.00, 0.000, 0.000, 0.000, 10:28:11.929
108, 24.04, 4.34, 0.00, 0.00, 0.000, 0.000, 0.000, 10:28:11.929
109, 23.30, 3.01, 0.00, 0.00, 0.000, 0.000, 0.000, 10:28:11.943
110, 18.50, -0.62, 0.00, 0.00, 0.000, 0.000, 0.000, 10:28:11.943
111, 17.46, -0.36, 0.00, 0.00, 0.000, 0.000, 0.000, 10:28:11.958
112, 26.92, 17.33, 0.00, 0.00, 0.000, 0.000, 0.000, 10:28:11.958
113, 28.68, 10.70, 0.00, 0.00, 0.000, 0.000, 0.000, 10:28:11.958
114, 14.59, 8.15, 0.00, 0.00, 0.000, 0.000, 0.000, 10:28:11.959
115, 14.05, -11.75, 0.00, 0.00, 0.000, 0.000, 0.000, 10:28:11.973
116, 20.82, 6.03, 0.00, 0.00, 0.000, 0.000, 0.000, 10:28:11.973
117, 23.62, 3.69, 0.00, 0.00, 0.000, 0.000, 0.000, 10:28:11.988
118, 18.29, 0.80, 0.00, 0.00, 0.000, 0.000, 0.000, 10:28:11.988
119, 16.64, 0.67, 0.00, 0.00, 0.000, 0.000, 0.000, 10:28:11.988
120, 22.86, 5.91, 0.00, 0.00, 0.000, 0.000, 0.000, 10:28:11.988
121, 21.43, 2.71, 0.00, 0.00, 0.000, 0.000, 0.000, 10:28:12.003
122, 15.49, -0.94, 0.00, 0.00, 0.000, 0.000, 0.000, 10:28:12.003
123, 18.65, -0.42, 0.00, 0.00, 0.000, 0.000, 0.000, 10:28:12.018
124, 19.36, 3.87, 0.00, 0.00, 0.000, 0.000, 0.000, 10:28:12.018
125, 23.87, 4.56, 0.00, 0.00, 0.000, 0.000, 0.000, 10:28:12.018
126, 18.85, -0.66, 0.00, 0.00, 0.000, 0.000, 0.000, 10:28:12.018
127, 15.42, 1.80, 0.00, 0.00, 0.000, 0.000, 0.000, 10:28:12.033
128, 22.72, 4.71, 0.00, 0.00, 0.000, 0.000, 0.000, 10:28:12.034
129, 19.72, 4.75, 0.00, 0.00, 0.000, 0.000, 0.000, 10:28:12.048
130, 16.95, 1.88, 0.00, 0.00, 0.000, 0.000, 0.000, 10:28:12.048
131, 18.08, 4.36, 0.00, 0.00, 0.000, 0.000, 0.000, 10:28:12.049
132, 24.65, 5.28, 0.00, 0.00, 0.000, 0.000, 0.000, 10:28:12.049
133, 22.21, 3.43, 0.00, 0.00, 0.000, 0.000, 0.000, 10:28:12.063
134, 16.68, -1.47, 0.00, 0.00, 0.000, 0.000, 0.000, 10:28:12.063
135, 15.02, 2.84, 0.00, 0.00, 0.000, 0.000, 0.000, 10:28:12.078
136, 23.48, 8.60, 0.00, 0.00, 0.000, 0.000, 0.000, 10:28:12.079
137, 25.76, 4.82, 0.00, 0.00, 0.000, 0.000, 0.000, 10:28:12.079
138, 19.23, -6.48, 0.00, 0.00, 0.000, 0.000, 0.000, 10:28:12.079
139, 19.25, 1.72, 0.00, 0.00, 0.000, 0.000, 0.000, 10:28:12.108
140, 22.57, 17.18, 0.00, 0.00, 0.000, 0.000, 0.000, 10:28:12.108
141, 23.23, 0.37, 0.00, 0.00, 0.000, 0.000, 0.000, 10:28:12.108
142, 21.78, -4.85, 0.00, 0.00, 0.000, 0.000, 0.000, 10:28:12.108
143, 20.80, 1.82, 0.00, 0.00, 0.000, 0.000, 0.000, 10:28:12.109
144, 24.56, 12.45, 0.00, 0.00, 0.000, 0.000, 0.000, 10:28:12.109
145, 26.52, 5.68, 0.00, 0.00, 0.000, 0.000, 0.000, 10:28:12.124
146, 18.78, -0.67, 0.00, 0.00, 0.000, 0.000, 0.000, 10:28:12.124
147, 17.74, 3.75, 0.00, 0.00, 0.000, 0.000, 0.000, 10:28:12.138
148, 24.16, 5.94, 0.00, 0.00, 0.000, 0.000, 0.000, 10:28:12.138
149, 21.19, 6.17, 0.00, 0.00, 0.000, 0.000, 0.000, 10:28:12.138
150, 17.11, 1.52, 0.00, 0.00, 0.000, 0.000, 0.000, 10:28:12.138
151, 19.10, 2.13, 0.00, 0.00, 0.000, 0.000, 0.000, 10:28:12.153
152, 26.53, 4.10, 0.00, 0.00, 0.000, 0.000, 0.000, 10:28:12.153
153, 27.28, 7.91, 0.00, 0.00, 0.000, 0.000, 0.000, 10:28:12.168
154, 19.92, 2.85, 0.00, 0.00, 0.000, 0.000, 0.000, 10:28:12.168
155, 17.56, 1.68, 0.00, 0.00, 0.000, 0.000, 0.000, 10:28:12.168
156, 23.96, 5.17, 0.00, 0.00, 0.000, 0.000, 0.000, 10:28:12.169
157, 24.17, 3.52, 0.00, 0.00, 0.000, 0.000, 0.000, 10:28:12.183
158, 18.98, -6.00, 0.00, 0.00, 0.000, 0.000, 0.000, 10:28:12.183
159, 18.57, 8.98, 0.00, 0.00, 0.000, 0.000, 0.000, 10:28:12.198
160, 21.21, 6.32, 0.00, 0.00, 0.000, 0.000, 0.000, 10:28:12.199
161, 28.18, 0.03, 0.00, 0.00, 0.000, 0.000, 0.000, 10:28:12.199
162, 20.65, 3.16, 0.00, 0.00, 0.000, 0.000, 0.000, 10:28:12.199
163, 19.05, 0.15, 0.00, 0.00, 0.000, 0.000, 0.000, 10:28:12.213
164, 28.20, 6.10, 0.00, 0.00, 0.000, 0.000, 0.000, 10:28:12.214
165, 24.35, 4.12, 0.00, 0.00, 0.000, 0.000, 0.000, 10:28:12.227
166, 18.64, 4.71, 0.00, 0.00, 0.000, 0.000, 0.000, 10:28:12.228
167, 17.06, 1.79, 0.00, 0.00, 0.000, 0.000, 0.000, 10:28:12.228
168, 22.67, 4.66, 0.00, 0.00, 0.000, 0.000, 0.000, 10:28:12.228
169, 23.34, 5.67, 0.00, 0.00, 0.000, 0.000, 0.000, 10:28:12.243
170, 18.43, -4.06, 0.00, 0.00, 0.000, 0.000, 0.000, 10:28:12.243
171, 13.52, 6.87, 0.00, 0.00, 0.000, 0.000, 0.000, 10:28:12.258
172, 22.22, 5.15, 0.00, 0.00, 0.000, 0.000, 0.000, 10:28:12.258
173, 27.46, 5.90, 0.00, 0.00, 0.000, 0.000, 0.000, 10:28:12.258
174, 19.37, 4.77, 0.00, 0.00, 0.000, 0.000, 0.000, 10:28:12.258
175, 17.37, -1.27, 0.00, 0.00, 0.000, 0.000, 0.000, 10:28:12.280
176, 23.33, 7.03, 0.00, 0.00, 0.000, 0.000, 0.000, 10:28:12.280
177, 21.05, 8.28, 0.00, 0.00, 0.000, 0.000, 0.000, 10:28:12.288
178, 21.10, -1.07, 0.00, 0.00, 0.000, 0.000, 0.000, 10:28:12.288
179, 19.36, 0.31, 0.00, 0.00, 0.000, 0.000, 0.000, 10:28:12.288
180, 25.50, 5.25, 0.00, 0.00, 0.000, 0.000, 0.000, 10:28:12.288
181, 23.77, 2.76, 0.00, 0.00, 0.000, 0.000, 0.000, 10:28:12.304
182, 16.95, 6.68, 0.00, 0.00, 0.000, 0.000, 0.000, 10:28:12.305
183, 16.80, -0.79, 0.00, 0.00, 0.000, 0.000, 0.000, 10:28:12.318
184, 23.17, -0.08, 0.00, 0.00, 0.000, 0.000, 0.000, 10:28:12.318
185, 29.27, 12.25, 0.00, 0.00, 0.000, 0.000, 0.000, 10:28:12.318
186, 17.97, -0.66, 0.00, 0.00, 0.000, 0.000, 0.000, 10:28:12.319
187, 17.72, 5.57, 0.00, 0.00, 0.000, 0.000, 0.000, 10:28:12.333
188, 21.88, 5.28, 0.00, 0.00, 0.000, 0.000, 0.000, 10:28:12.333
189, 23.80, 9.01, 0.00, 0.00, 0.000, 0.000, 0.000, 10:28:12.348
190, 16.20, 2.58, 0.00, 0.00, 0.000, 0.000, 0.000, 10:28:12.348
191, 17.90, 3.60, 0.00, 0.00, 0.000, 0.000, 0.000, 10:28:12.348
192, 24.86, 11.68, 0.00, 0.00, 0.000, 0.000, 0.000, 10:28:12.349
193, 24.05, 8.44, 0.00, 0.00, 0.000, 0.000, 0.000, 10:28:12.362
194, 18.88, -0.03, 0.00, 0.00, 0.000, 0.000, 0.000, 10:28:12.363
195, 14.12, 3.23, 0.00, 0.00, 0.000, 0.000, 0.000, 10:28:12.377
196, 20.63, 3.58, 0.00, 0.00, 0.000, 0.000, 0.000, 10:28:12.377
197, 25.69, 6.03, 0.00, 0.00, 0.000, 0.000, 0.000, 10:28:12.379
198, 18.50, 3.74, 0.00, 0.00, 0.000, 0.000, 0.000, 10:28:12.379
199, 18.60, 6.07, 0.00, 0.00, 0.000, 0.000, 0.000, 10:28:12.393
200, 24.73, 3.35, 0.00, 0.00, 0.000, 0.000, 0.000, 10:28:12.393
0, 21.87, 3.05, 0.00, 0.00, 0.000, 0.000, 0.000, 10:28:12.393
1, 18.54, -5.18, 0.00, 0.00, 0.000, 0.000, 0.000, 10:28:12.408
2, 16.68, 5.48, 0.00, 0.00, 0.000, 0.000, 0.000, 10:28:12.408
3, 20.67, 22.97, 0.00, 0.00, 0.000, 0.000, 0.000, 10:28:12.423
4, 24.87, 3.37, 0.00, 0.00, 0.000, 0.000, 0.000, 10:28:12.423
5, 16.88, -5.17, 0.00, 0.00, 0.000, 0.000, 0.000, 10:28:12.423
6, 16.54, 4.03, 0.00, 0.00, 0.000, 0.000, 0.000, 10:28:12.423
7, 22.67, 8.27, 0.00, 0.00, 0.000, 0.000, 0.000, 10:28:12.439
8, 30.22, 11.92, 0.00, 0.00, 0.000, 0.000, 0.000, 10:28:12.439
9, 17.73, 0.20, 0.00, 0.00, 0.000, 0.000, 0.000, 10:28:12.454
10, 16.29, -0.42, 0.00, 0.00, 0.000, 0.000, 0.000, 10:28:12.454
11, 25.18, 6.43, 0.00, 0.00, 0.000, 0.000, 0.000, 10:28:12.454
12, 24.47, 2.52, 0.00, 0.00, 0.000, 0.000, 0.000, 10:28:12.454
13, 19.43, -0.50, 0.00, 0.00, 0.000, 0.000, 0.000, 10:28:12.468
14, 16.63, 0.09, 0.00, 0.00, 0.000, 0.000, 0.000, 10:28:12.468
15, 21.81, 6.84, 0.00, 0.00, 0.000, 0.000, 0.000, 10:28:12.483
16, 24.51, 2.33, 0.00, 0.00, 0.000, 0.000, 0.000, 10:28:12.483
17, 18.28, 0.99, 0.00, 0.00, 0.000, 0.000, 0.000, 10:28:12.483
18, 18.68, 3.36, 0.00, 0.00, 0.000, 0.000, 0.000, 10:28:12.483
19, 22.18, 3.81, 0.00, 0.00, 0.000, 0.000, 0.000, 10:28:12.497
20, 24.05, 8.42, 0.00, 0.00, 0.000, 0.000, 0.000, 10:28:12.497
21, 19.59, -0.46, 0.00, 0.00, 0.000, 0.000, 0.000, 10:28:12.513
22, 14.23, 2.70, 0.00, 0.00, 0.000, 0.000, 0.000, 10:28:12.513
23, 27.07, 9.18, 0.00, 0.00, 0.000, 0.000, 0.000, 10:28:12.513
24, 22.62, 17.33, 0.00, 0.00, 0.000, 0.000, 0.000, 10:28:12.513
25, 16.36, -9.82, 0.00, 0.00, 0.000, 0.000, 0.000, 10:28:12.528
26, 16.94, -0.71, 0.00, 0.00, 0.000, 0.000, 0.000, 10:28:12.529
27, 21.34, 9.20, 0.00, 0.00, 0.000, 0.000, 0.000, 10:28:12.543
28, 23.43, 1.99, 0.00, 0.00, 0.000, 0.000, 0.000, 10:28:12.543
29, 17.40, -0.47, 0.00, 0.00, 0.000, 0.000, 0.000, 10:28:12.543
30, 15.72, 1.55, 0.00, 0.00, 0.000, 0.000, 0.000, 10:28:12.543
31, 22.43, 3.98, 0.00, 0.00, 0.000, 0.000, 0.000, 10:28:12.558
32, 23.84, 8.01, 0.00, 0.00, 0.000, 0.000, 0.000, 10:28:12.558
33, 16.42, 0.26, 0.00, 0.00, 0.000, 0.000, 0.000, 10:28:12.573
34, 14.57, 8.01, 0.00, 0.00, 0.000, 0.000, 0.000, 10:28:12.573
35, 20.48, 7.06, 0.00, 0.00, 0.000, 0.000, 0.000, 10:28:12.573
36, 24.82, 3.00, 0.00, 0.00, 0.000, 0.000, 0.000, 10:28:12.574
37, 16.62, 2.03, 0.00, 0.00, 0.000, 0.000, 0.000, 10:28:12.588
38, 14.56, 5.29, 0.00, 0.00, 0.000, 0.000, 0.000, 10:28:12.588
39, 24.02, 8.36, 0.00, 0.00, 0.000, 0.000, 0.000, 10:28:12.603
40, 25.01, 2.75, 0.00, 0.00, 0.000, 0.000, 0.000, 10:28:12.603
41, 21.27, 0.06, 0.00, 0.00, 0.000, 0.000, 0.000, 10:28:12.604
42, 14.52, 3.39, 0.00, 0.00, 0.000, 0.000, 0.000, 10:28:12.604
43, 23.42, 4.21, 0.00, 0.00, 0.000, 0.000, 0.000, 10:28:12.618
44, 24.06, 11.94, 0.00, 0.00, 0.000, 0.000, 0.000, 10:28:12.618
45, 16.09, 2.35, 0.00, 0.00, 0.000, 0.000, 0.000, 10:28:12.633
46, 16.55, 1.39, 0.00, 0.00, 0.000, 0.000, 0.000, 10:28:12.633
47, 21.81, 6.09, 0.00, 0.00, 0.000, 0.000, 0.000, 10:28:12.634
48, 21.06, 0.92, 0.00, 0.00, 0.000, 0.000, 0.000, 10:28:12.634
49, 14.80, 3.95, 0.00, 0.00, 0.000, 0.000, 0.000, 10:28:12.648
50, 16.74, 7.03, 0.00, 0.00, 0.000, 0.000, 0.000, 10:28:12.649
51, 23.57, 17.68, 0.00, 0.00, 0.000, 0.000, 0.000, 10:28:12.662
52, 24.03, -0.70, 0.00, 0.00, 0.000, 0.000, 0.000, 10:28:12.663
53, 16.86, -2.51, 0.00, 0.00, 0.000, 0.000, 0.000, 10:28:12.663
54, 13.80, 2.87, 0.00, 0.00, 0.000, 0.000, 0.000, 10:28:12.663
55, 24.83, 8.58, 0.00, 0.00, 0.000, 0.000, 0.000, 10:28:12.678
56, 22.19, 9.40, 0.00, 0.00, 0.000, 0.000, 0.000, 10:28:12.678
57, 18.88, 2.93, 0.00, 0.00, 0.000, 0.000, 0.000, 10:28:12.693
58, 19.90, 5.97, 0.00, 0.00, 0.000, 0.000, 0.000, 10:28:12.693
59, 26.29, 10.15, 0.00, 0.00, 0.000, 0.000, 0.000, 10:28:12.694
60, 24.62, 8.22, 0.00, 0.00, 0.000, 0.000, 0.000, 10:28:12.694
61, 18.41, 7.78, 0.00, 0.00, 0.000, 0.000, 0.000, 10:28:12.708
62, 14.72, -3.88, 0.00, 0.00, 0.000, 0.000, 0.000, 10:28:12.708
63, 23.79, 5.26, 0.00, 0.00, 0.000, 0.000, 0.000, 10:28:12.723
64, 26.29, 5.60, 0.00, 0.00, 0.000, 0.000, 0.000, 10:28:12.724
65, 19.73, 7.32, 0.00, 0.00, 0.000, 0.000, 0.000, 10:28:12.724
66, 14.02, 2.57, 0.00, 0.00, 0.000, 0.000, 0.000, 10:28:12.724
67, 21.74, 4.73, 0.00, 0.00, 0.000, 0.000, 0.000, 10:28:12.738
68, 24.61, 7.35, 0.00, 0.00, 0.000, 0.000, 0.000, 10:28:12.739
69, 19.06, 4.93, 0.00, 0.00, 0.000, 0.000, 0.000, 10:28:12.753
70, 20.49, 4.76, 0.00, 0.00, 0.000, 0.000, 0.000, 10:28:12.753
71, 22.62, 9.81, 0.00, 0.00, 0.000, 0.000, 0.000, 10:28:12.754
72, 25.86, 10.65, 0.00, 0.00, 0.000, 0.000, 0.000, 10:28:12.754
73, 16.59, 0.25, 0.00, 0.00, 0.000, 0.000, 0.000, 10:28:12.775
74, 17.64, 5.22, 0.00, 0.00, 0.000, 0.000, 0.000, 10:28:12.776
75, 20.58, 9.91, 0.00, 0.00, 0.000, 0.000, 0.000, 10:28:12.783
76, 22.65, 8.98, 0.00, 0.00, 0.000, 0.000, 0.000, 10:28:12.783
77, 19.71, 12.94, 0.00, 0.00, 0.000, 0.000, 0.000, 10:28:12.783
78, 17.00, -11.46, 0.00, 0.00, 0.000, 0.000, 0.000, 10:28:12.783
79, 22.21, 5.47, 0.00, 0.00, 0.000, 0.000, 0.000, 10:28:12.797
80, 25.71, 9.52, 0.00, 0.00, 0.000, 0.000, 0.000, 10:28:12.797
81, 18.08, 6.57, 0.00, 0.00, 0.000, 0.000, 0.000, 10:28:12.813
82, 19.68, -1.77, 0.00, 0.00, 0.000, 0.000, 0.000, 10:28:12.813
83, 23.09, 4.29, 0.00, 0.00, 0.000, 0.000, 0.000, 10:28:12.814
84, 21.38, 6.76, 0.00, 0.00, 0.000, 0.000, 0.000, 10:28:12.814
85, 19.25, 1.29, 0.00, 0.00, 0.000, 0.000, 0.000, 10:28:12.828
86, 17.44, 1.23, 0.00, 0.00, 0.000, 0.000, 0.000, 10:28:12.828
87, 21.89, 4.70, 0.00, 0.00, 0.000, 0.000, 0.000, 10:28:12.843
88, 25.15, 5.24, 0.00, 0.00, 0.000, 0.000, 0.000, 10:28:12.843
89, 16.81, 5.92, 0.00, 0.00, 0.000, 0.000, 0.000, 10:28:12.843
90, 16.65, 5.46, 0.00, 0.00, 0.000, 0.000, 0.000, 10:28:12.844
91, 22.04, 4.89, 0.00, 0.00, 0.000, 0.000, 0.000, 10:28:12.858
92, 23.81, 7.75, 0.00, 0.00, 0.000, 0.000, 0.000, 10:28:12.858
93, 18.79, 2.40, 0.00, 0.00, 0.000, 0.000, 0.000, 10:28:12.874
94, 13.85, 2.38, 0.00, 0.00, 0.000, 0.000, 0.000, 10:28:12.874
95, 23.63, 6.34, 0.00, 0.00, 0.000, 0.000, 0.000, 10:28:12.874
96, 25.38, 7.89, 0.00, 0.00, 0.000, 0.000, 0.000, 10:28:12.874
97, 17.71, 6.71, 0.00, 0.00, 0.000, 0.000, 0.000, 10:28:12.888
98, 17.94, 4.47, 0.00, 0.00, 0.000, 0.000, 0.000, 10:28:12.888
99, 22.79, 8.53, 0.00, 0.00, 0.000, 0.000, 0.000, 10:28:12.918
100, 21.33, 13.04, 0.00, 0.00, 0.000, 0.000, 0.000, 10:28:12.918
101, 18.96, -4.70, 0.00, 0.00, 0.000, 0.000, 0.000, 10:28:12.918
102, 21.99, -4.28, 0.00, 0.00, 0.000, 0.000, 0.000, 10:28:12.918
103, 20.85, 6.10, 0.00, 0.00, 0.000, 0.000, 0.000, 10:28:12.918
104, 23.33, 5.68, 0.00, 0.00, 0.000, 0.000, 0.000, 10:28:12.918
105, 16.53, -7.62, 0.00, 0.00, 0.000, 0.000, 0.000, 10:28:12.921
106, 14.46, 1.18, 0.00, 0.00, 0.000, 0.000, 0.000, 10:28:12.921
107, 22.61, 4.29, 0.00, 0.00, 0.000, 0.000, 0.000, 10:28:12.934
108, 23.21, 2.07, 0.00, 0.00, 0.000, 0.000, 0.000, 10:28:12.934
109, 17.37, -6.11, 0.00, 0.00, 0.000, 0.000, 0.000, 10:28:12.977
110, 17.34, 4.47, 0.00, 0.00, 0.000, 0.000, 0.000, 10:28:12.977
111, 19.62, 4.40, 0.00, 0.00, 0.000, 0.000, 0.000, 10:28:12.978
112, 19.12, 6.47, 0.00, 0.00, 0.000, 0.000, 0.000, 10:28:12.978
113, 19.15, 3.30, 0.00, 0.00, 0.000, 0.000, 0.000, 10:28:12.978
114, 17.52, 3.51, 0.00, 0.00, 0.000, 0.000, 0.000, 10:28:12.978
115, 24.85, 5.02, 0.00, 0.00, 0.000, 0.000, 0.000, 10:28:12.979
116, 25.13, 5.45, 0.00, 0.00, 0.000, 0.000, 0.000, 10:28:12.979
117, 18.42, 2.31, 0.00, 0.00, 0.000, 0.000, 0.000, 10:28:12.981
118, 18.18, 0.04, 0.00, 0.00, 0.000, 0.000, 0.000, 10:28:12.981
119, 22.30, 8.01, 0.00, 0.00, 0.000, 0.000, 0.000, 10:28:12.993
120, 23.08, 5.21, 0.00, 0.00, 0.000, 0.000, 0.000, 10:28:12.993
121, 15.76, 4.50, 0.00, 0.00, 0.000, 0.000, 0.000, 10:28:13.008
122, 14.45, 5.81, 0.00, 0.00, 0.000, 0.000, 0.000, 10:28:13.008
123, 22.85, 0.36, 0.00, 0.00, 0.000, 0.000, 0.000, 10:28:13.023
124, 20.84, 12.66, 0.00, 0.00, 0.000, 0.000, 0.000, 10:28:13.023
125, 21.33, -3.35, 0.00, 0.00, 0.000, 0.000, 0.000, 10:28:13.023
126, 17.79, -4.46, 0.00, 0.00, 0.000, 0.000, 0.000, 10:28:13.023
127, 21.02, 6.19, 0.00, 0.00, 0.000, 0.000, 0.000, 10:28:13.038
128, 24.99, 7.52, 0.00, 0.00, 0.000, 0.000, 0.000, 10:28:13.038
129, 18.73, 1.33, 0.00, 0.00, 0.000, 0.000, 0.000, 10:28:13.053
130, 16.19, 1.61, 0.00, 0.00, 0.000, 0.000, 0.000, 10:28:13.053
131, 22.38, 3.34, 0.00, 0.00, 0.000, 0.000, 0.000, 10:28:13.053
132, 22.55, 5.58, 0.00, 0.00, 0.000, 0.000, 0.000, 10:28:13.053
133, 18.10, 4.23, 0.00, 0.00, 0.000, 0.000, 0.000, 10:28:13.083
134, 16.61, 0.68, 0.00, 0.00, 0.000, 0.000, 0.000, 10:28:13.083
135, 25.55, 5.63, 0.00, 0.00, 0.000, 0.000, 0.000, 10:28:13.098
136, 25.63, 2.50, 0.00, 0.00, 0.000, 0.000, 0.000, 10:28:13.099
137, 17.59, 4.66, 0.00, 0.00, 0.000, 0.000, 0.000, 10:28:13.099
138, 14.98, -2.79, 0.00, 0.00, 0.000, 0.000, 0.000, 10:28:13.099
139, 26.01, 4.51, 0.00, 0.00, 0.000, 0.000, 0.000, 10:28:13.099
140, 26.98, 6.64, 0.00, 0.00, 0.000, 0.000, 0.000, 10:28:13.099
141, 19.42, 2.04, 0.00, 0.00, 0.000, 0.000, 0.000, 10:28:13.100
142, 19.47, -5.10, 0.00, 0.00, 0.000, 0.000, 0.000, 10:28:13.100
143, 22.05, 20.04, 0.00, 0.00, 0.000, 0.000, 0.000, 10:28:13.113
144, 27.31, -5.43, 0.00, 0.00, 0.000, 0.000, 0.000, 10:28:13.113
145, 18.73, -3.32, 0.00, 0.00, 0.000, 0.000, 0.000, 10:28:13.128
146, 19.11, 2.64, 0.00, 0.00, 0.000, 0.000, 0.000, 10:28:13.128
147, 21.59, 5.32, 0.00, 0.00, 0.000, 0.000, 0.000, 10:28:13.144
148, 24.46, 4.57, 0.00, 0.00, 0.000, 0.000, 0.000, 10:28:13.144
149, 19.23, 0.19, 0.00, 0.00, 0.000, 0.000, 0.000, 10:28:13.144
150, 16.43, 2.79, 0.00, 0.00, 0.000, 0.000, 0.000, 10:28:13.144
151, 23.37, 4.48, 0.00, 0.00, 0.000, 0.000, 0.000, 10:28:13.158
152, 23.98, 7.67, 0.00, 0.00, 0.000, 0.000, 0.000, 10:28:13.158
153, 23.09, 3.77, 0.00, 0.00, 0.000, 0.000, 0.000, 10:28:13.173
154, 18.12, 6.21, 0.00, 0.00, 0.000, 0.000, 0.000, 10:28:13.173
155, 22.90, 8.43, 0.00, 0.00, 0.000, 0.000, 0.000, 10:28:13.174
156, 19.82, 4.14, 0.00, 0.00, 0.000, 0.000, 0.000, 10:28:13.174
157, 14.74, -1.43, 0.00, 0.00, 0.000, 0.000, 0.000, 10:28:13.188
158, 15.56, -0.57, 0.00, 0.00, 0.000, 0.000, 0.000, 10:28:13.188
159, 21.38, 4.77, 0.00, 0.00, 0.000, 0.000, 0.000, 10:28:13.203
160, 26.99, 4.54, 0.00, 0.00, 0.000, 0.000, 0.000, 10:28:13.203
161, 19.09, 8.17, 0.00, 0.00, 0.000, 0.000, 0.000, 10:28:13.204
162, 14.08, -4.08, 0.00, 0.00, 0.000, 0.000, 0.000, 10:28:13.204
163, 19.48, 14.36, 0.00, 0.00, 0.000, 0.000, 0.000, 10:28:13.225
164, 21.96, 4.47, 0.00, 0.00, 0.000, 0.000, 0.000, 10:28:13.225
165, 19.40, -16.02, 0.00, 0.00, 0.000, 0.000, 0.000, 10:28:13.234
166, 12.06, 2.62, 0.00, 0.00, 0.000, 0.000, 0.000, 10:28:13.234
167, 25.69, 9.96, 0.00, 0.00, 0.000, 0.000, 0.000, 10:28:13.234
168, 27.15, 9.89, 0.00, 0.00, 0.000, 0.000, 0.000, 10:28:13.234
169, 20.11, 7.55, 0.00, 0.00, 0.000, 0.000, 0.000, 10:28:13.248
170, 17.42, 1.42, 0.00, 0.00, 0.000, 0.000, 0.000, 10:28:13.248
171, 19.94, 8.17, 0.00, 0.00, 0.000, 0.000, 0.000, 10:28:13.263
172, 26.74, 5.05, 0.00, 0.00, 0.000, 0.000, 0.000, 10:28:13.263
173, 19.48, 0.20, 0.00, 0.00, 0.000, 0.000, 0.000, 10:28:13.263
174, 18.56, 3.47, 0.00, 0.00, 0.000, 0.000, 0.000, 10:28:13.263
175, 20.52, 9.24, 0.00, 0.00, 0.000, 0.000, 0.000, 10:28:13.278
176, 24.19, 4.33, 0.00, 0.00, 0.000, 0.000, 0.000, 10:28:13.278
177, 20.23, -2.54, 0.00, 0.00, 0.000, 0.000, 0.000, 10:28:13.293
178, 16.11, 4.57, 0.00, 0.00, 0.000, 0.000, 0.000, 10:28:13.293
179, 21.87, 8.75, 0.00, 0.00, 0.000, 0.000, 0.000, 10:28:13.294
180, 26.02, 8.38, 0.00, 0.00, 0.000, 0.000, 0.000, 10:28:13.294
181, 19.70, 3.25, 0.00, 0.00, 0.000, 0.000, 0.000, 10:28:13.309
182, 14.90, -2.50, 0.00, 0.00, 0.000, 0.000, 0.000, 10:28:13.309
183, 21.92, 11.24, 0.00, 0.00, 0.000, 0.000, 0.000, 10:28:13.324
184, 25.92, -3.07, 0.00, 0.00, 0.000, 0.000, 0.000, 10:28:13.324
185, 20.13, 6.83, 0.00, 0.00, 0.000, 0.000, 0.000, 10:28:13.324
186, 14.04, 1.18, 0.00, 0.00, 0.000, 0.000, 0.000, 10:28:13.324
187, 20.99, 7.20, 0.00, 0.00, 0.000, 0.000, 0.000, 10:28:13.338
188, 30.65, 11.85, 0.00, 0.00, 0.000, 0.000, 0.000, 10:28:13.338
189, 16.32, -0.97, 0.00, 0.00, 0.000, 0.000, 0.000, 10:28:13.353
190, 17.38, -0.67, 0.00, 0.00, 0.000, 0.000, 0.000, 10:28:13.353
191, 21.23, 4.71, 0.00, 0.00, 0.000, 0.000, 0.000, 10:28:13.353
192, 27.15, 8.57, 0.00, 0.00, 0.000, 0.000, 0.000, 10:28:13.353
193, 18.81, 4.19, 0.00, 0.00, 0.000, 0.000, 0.000, 10:28:13.368
194, 19.93, 1.82, 0.00, 0.00, 0.000, 0.000, 0.000, 10:28:13.369
195, 25.51, 6.77, 0.00, 0.00, 0.000, 0.000, 0.000, 10:28:13.383
196, 25.19, 4.17, 0.00, 0.00, 0.000, 0.000, 0.000, 10:28:13.383
197, 17.09, 5.92, 0.00, 0.00, 0.000, 0.000, 0.000, 10:28:13.383
198, 16.63, 5.08, 0.00, 0.00, 0.000, 0.000, 0.000, 10:28:13.383
199, 23.10, -1.42, 0.00, 0.00, 0.000, 0.000, 0.000, 10:28:13.398
200, 27.81, 7.28, 0.00, 0.00, 0.000, 0.000, 0.000, 10:28:13.398
0, 16.17, 3.24, 0.00, 0.00, 0.000, 0.000, 0.000, 10:28:13.398
1, 13.64, -2.22, 0.00, 0.00, 0.000, 0.000, 0.000, 10:28:13.413
2, 20.73, 6.85, 0.00, 0.00, 0.000, 0.000, 0.000, 10:28:13.413
3, 25.41, 5.56, 0.00, 0.00, 0.000, 0.000, 0.000, 10:28:13.428
4, 15.01, -2.18, 0.00, 0.00, 0.000, 0.000, 0.000, 10:28:13.428
5, 13.30, 4.75, 0.00, 0.00, 0.000, 0.000, 0.000, 10:28:13.428
6, 21.66, 6.05, 0.00, 0.00, 0.000, 0.000, 0.000, 10:28:13.428
7, 28.68, -1.09, 0.00, 0.00, 0.000, 0.000, 0.000, 10:28:13.443
8, 20.21, 0.89, 0.00, 0.00, 0.000, 0.000, 0.000, 10:28:13.443
9, 16.36, -1.30, 0.00, 0.00, 0.000, 0.000, 0.000, 10:28:13.458
10, 19.49, 8.68, 0.00, 0.00, 0.000, 0.000, 0.000, 10:28:13.459
11, 24.19, 1.95, 0.00, 0.00, 0.000, 0.000, 0.000, 10:28:13.459
12, 17.38, 3.30, 0.00, 0.00, 0.000, 0.000, 0.000, 10:28:13.459
13, 13.11, 2.30, 0.00, 0.00, 0.000, 0.000, 0.000, 10:28:13.473
14, 23.77, 5.22, 0.00, 0.00, 0.000, 0.000, 0.000, 10:28:13.473
15, 24.84, 3.09, 0.00, 0.00, 0.000, 0.000, 0.000, 10:28:13.488
16, 17.69, 6.08, 0.00, 0.00, 0.000, 0.000, 0.000, 10:28:13.488
17, 17.78, 1.17, 0.00, 0.00, 0.000, 0.000, 0.000, 10:28:13.488
18, 24.26, 1.88, 0.00, 0.00, 0.000, 0.000, 0.000, 10:28:13.488
19, 30.28, 5.52, 0.00, 0.00, 0.000, 0.000, 0.000, 10:28:13.503
20, 17.78, -1.05, 0.00, 0.00, 0.000, 0.000, 0.000, 10:28:13.503
21, 18.83, 0.20, 0.00, 0.00, 0.000, 0.000, 0.000, 10:28:13.518
22, 23.98, 5.51, 0.00, 0.00, 0.000, 0.000, 0.000, 10:28:13.518
23, 26.30, 6.99, 0.00, 0.00, 0.000, 0.000, 0.000, 10:28:13.518
24, 20.08, 2.73, 0.00, 0.00, 0.000, 0.000, 0.000, 10:28:13.518
25, 14.73, 2.55, 0.00, 0.00, 0.000, 0.000, 0.000, 10:28:13.533
26, 22.09, 12.94, 0.00, 0.00, 0.000, 0.000, 0.000, 10:28:13.533
27, 21.54, 16.71, 0.00, 0.00, 0.000, 0.000, 0.000, 10:28:13.548
28, 22.65, 3.91, 0.00, 0.00, 0.000, 0.000, 0.000, 10:28:13.548
29, 15.30, -0.80, 0.00, 0.00, 0.000, 0.000, 0.000, 10:28:13.548
30, 22.29, 7.70, 0.00, 0.00, 0.000, 0.000, 0.000, 10:28:13.548
31, 23.16, 9.98, 0.00, 0.00, 0.000, 0.000, 0.000, 10:28:13.563
32, 20.28, 5.10, 0.00, 0.00, 0.000, 0.000, 0.000, 10:28:13.563
33, 18.75, 0.82, 0.00, 0.00, 0.000, 0.000, 0.000, 10:28:13.578
34, 22.27, 5.35, 0.00, 0.00, 0.000, 0.000, 0.000, 10:28:13.578
35, 26.07, 13.46, 0.00, 0.00, 0.000, 0.000, 0.000, 10:28:13.578
36, 23.75, 2.84, 0.00, 0.00, 0.000, 0.000, 0.000, 10:28:13.579
37, 16.19, 2.26, 0.00, 0.00, 0.000, 0.000, 0.000, 10:28:13.593
38, 23.12, 4.63, 0.00, 0.00, 0.000, 0.000, 0.000, 10:28:13.593
39, 23.56, 5.21, 0.00, 0.00, 0.000, 0.000, 0.000, 10:28:13.608
40, 21.65, 1.97, 0.00, 0.00, 0.000, 0.000, 0.000, 10:28:13.608
41, 19.79, 5.85, 0.00, 0.00, 0.000, 0.000, 0.000, 10:28:13.608
42, 23.94, 3.81, 0.00, 0.00, 0.000, 0.000, 0.000, 10:28:13.609
43, 22.88, 16.77, 0.00, 0.00, 0.000, 0.000, 0.000, 10:28:13.624
44, 18.91, -8.21, 0.00, 0.00, 0.000, 0.000, 0.000, 10:28:13.624
45, 20.39, -0.47, 0.00, 0.00, 0.000, 0.000, 0.000, 10:28:13.638
46, 23.67, 4.84, 0.00, 0.00, 0.000, 0.000, 0.000, 10:28:13.638
47, 29.89, 14.94, 0.00, 0.00, 0.000, 0.000, 0.000, 10:28:13.638
48, 19.09, 0.55, 0.00, 0.00, 0.000, 0.000, 0.000, 10:28:13.638
49, 20.44, -5.42, 0.00, 0.00, 0.000, 0.000, 0.000, 10:28:13.653
50, 23.22, 17.07, 0.00, 0.00, 0.000, 0.000, 0.000, 10:28:13.653
51, 28.43, 6.36, 0.00, 0.00, 0.000, 0.000, 0.000, 10:28:13.668
52, 19.44, 3.41, 0.00, 0.00, 0.000, 0.000, 0.000, 10:28:13.668
53, 18.81, 2.36, 0.00, 0.00, 0.000, 0.000, 0.000, 10:28:13.669
54, 24.28, 3.78, 0.00, 0.00, 0.000, 0.000, 0.000, 10:28:13.669
55, 29.42, 6.56, 0.00, 0.00, 0.000, 0.000, 0.000, 10:28:13.698
56, 20.90, 6.48, 0.00, 0.00, 0.000, 0.000, 0.000, 10:28:13.698
57, 16.71, 2.11, 0.00, 0.00, 0.000, 0.000, 0.000, 10:28:13.698
58, 20.15, 5.64, 0.00, 0.00, 0.000, 0.000, 0.000, 10:28:13.698
59, 22.48, 18.69, 0.00, 0.00, 0.000, 0.000, 0.000, 10:28:13.699
60, 19.50, -0.22, 0.00, 0.00, 0.000, 0.000, 0.000, 10:28:13.699
61, 20.82, -5.20, 0.00, 0.00, 0.000, 0.000, 0.000, 10:28:13.713
62, 26.00, 15.33, 0.00, 0.00, 0.000, 0.000, 0.000, 10:28:13.713
63, 26.66, 4.26, 0.00, 0.00, 0.000, 0.000, 0.000, 10:28:13.728
64, 21.17, 2.86, 0.00, 0.00, 0.000, 0.000, 0.000, 10:28:13.728
65, 18.23, 7.61, 0.00, 0.00, 0.000, 0.000, 0.000, 10:28:13.728
66, 21.76, -2.62, 0.00, 0.00, 0.000, 0.000, 0.000, 10:28:13.728
67, 27.85, 10.04, 0.00, 0.00, 0.000, 0.000, 0.000, 10:28:13.743
68, 20.47, 5.79, 0.00, 0.00, 0.000, 0.000, 0.000, 10:28:13.743
69, 19.48, 3.32, 0.00, 0.00, 0.000, 0.000, 0.000, 10:28:13.758
70, 22.59, 6.63, 0.00, 0.00, 0.000, 0.000, 0.000, 10:28:13.758
71, 27.76, 8.74, 0.00, 0.00, 0.000, 0.000, 0.000, 10:28:13.758
72, 18.99, 4.62, 0.00, 0.00, 0.000, 0.000, 0.000, 10:28:13.758
73, 16.85, 2.24, 0.00, 0.00, 0.000, 0.000, 0.000, 10:28:13.773
74, 21.54, 7.71, 0.00, 0.00, 0.000, 0.000, 0.000, 10:28:13.773
75, 25.24, 4.55, 0.00, 0.00, 0.000, 0.000, 0.000, 10:28:13.788
76, 19.51, 4.64, 0.00, 0.00, 0.000, 0.000, 0.000, 10:28:13.788
77, 15.44, 6.74, 0.00, 0.00, 0.000, 0.000, 0.000, 10:28:13.788
78, 20.54, 7.90, 0.00, 0.00, 0.000, 0.000, 0.000, 10:28:13.788
79, 25.71, 0.33, 0.00, 0.00, 0.000, 0.000, 0.000, 10:28:13.803
80, 21.98, 7.99, 0.00, 0.00, 0.000, 0.000, 0.000, 10:28:13.803
81, 14.58, 0.34, 0.00, 0.00, 0.000, 0.000, 0.000, 10:28:13.818
82, 18.96, 5.59, 0.00, 0.00, 0.000, 0.000, 0.000, 10:28:13.818
83, 23.58, 10.35, 0.00, 0.00, 0.000, 0.000, 0.000, 10:28:13.819
84, 21.52, -4.27, 0.00, 0.00, 0.000, 0.000, 0.000, 10:28:13.819
85, 13.65, -0.89, 0.00, 0.00, 0.000, 0.000, 0.000, 10:28:13.833
86, 19.03, 6.83, 0.00, 0.00, 0.000, 0.000, 0.000, 10:28:13.833
87, 23.01, 6.64, 0.00, 0.00, 0.000, 0.000, 0.000, 10:28:13.848
88, 18.64, 3.08, 0.00, 0.00, 0.000, 0.000, 0.000, 10:28:13.848
89, 17.52, -1.12, 0.00, 0.00, 0.000, 0.000, 0.000, 10:28:13.848
90, 19.56, 12.03, 0.00, 0.00, 0.000, 0.000, 0.000, 10:28:13.848
91, 27.90, 6.20, 0.00, 0.00, 0.000, 0.000, 0.000, 10:28:13.863
92, 21.99, 3.59, 0.00, 0.00, 0.000, 0.000, 0.000, 10:28:13.863
93, 17.47, 0.91, 0.00, 0.00, 0.000, 0.000, 0.000, 10:28:13.878
94, 20.39, 7.64, 0.00, 0.00, 0.000, 0.000, 0.000, 10:28:13.878
95, 24.99, 7.23, 0.00, 0.00, 0.000, 0.000, 0.000, 10:28:13.878
96, 18.55, 3.43, 0.00, 0.00, 0.000, 0.000, 0.000, 10:28:13.878
97, 18.10, 6.78, 0.00, 0.00, 0.000, 0.000, 0.000, 10:28:13.893
98, 20.31, 13.97, 0.00, 0.00, 0.000, 0.000, 0.000, 10:28:13.894
99, 24.78, 5.55, 0.00, 0.00, 0.000, 0.000, 0.000, 10:28:13.908
100, 21.92, -9.74, 0.00, 0.00, 0.000, 0.000, 0.000, 10:28:13.908
101, 17.45, -3.53, 0.00, 0.00, 0.000, 0.000, 0.000, 10:28:13.908
102, 22.24, 7.61, 0.00, 0.00, 0.000, 0.000, 0.000, 10:28:13.908
103, 21.55, 4.49, 0.00, 0.00, 0.000, 0.000, 0.000, 10:28:13.923
104, 20.81, -1.42, 0.00, 0.00, 0.000, 0.000, 0.000, 10:28:13.923
105, 16.26, 0.04, 0.00, 0.00, 0.000, 0.000, 0.000, 10:28:13.953
106, 21.00, 4.70, 0.00, 0.00, 0.000, 0.000, 0.000, 10:28:13.953
107, 26.24, 9.21, 0.00, 0.00, 0.000, 0.000, 0.000, 10:28:13.953
108, 16.96, -1.60, 0.00, 0.00, 0.000, 0.000, 0.000, 10:28:13.953
109, 15.53, -1.92, 0.00, 0.00, 0.000, 0.000, 0.000, 10:28:13.954
110, 22.22, 5.75, 0.00, 0.00, 0.000, 0.000, 0.000, 10:28:13.954
111, 27.53, 7.59, 0.00, 0.00, 0.000, 0.000, 0.000, 10:28:13.955
112, 18.02, 5.51, 0.00, 0.00, 0.000, 0.000, 0.000, 10:28:13.955
113, 14.95, 3.24, 0.00, 0.00, 0.000, 0.000, 0.000, 10:28:13.967
114, 24.63, 4.85, 0.00, 0.00, 0.000, 0.000, 0.000, 10:28:13.968
115, 26.98, 10.57, 0.00, 0.00, 0.000, 0.000, 0.000, 10:28:13.982
116, 20.13, 13.25, 0.00, 0.00, 0.000, 0.000, 0.000, 10:28:13.983
117, 15.93, -3.39, 0.00, 0.00, 0.000, 0.000, 0.000, 10:28:13.997
118, 22.27, 0.76, 0.00, 0.00, 0.000, 0.000, 0.000, 10:28:13.999
119, 26.95, 11.29, 0.00, 0.00, 0.000, 0.000, 0.000, 10:28:13.999
120, 22.74, -4.15, 0.00, 0.00, 0.000, 0.000, 0.000, 10:28:13.999
121, 21.20, 3.58, 0.00, 0.00, 0.000, 0.000, 0.000, 10:28:14.012
122, 21.43, 4.97, 0.00, 0.00, 0.000, 0.000, 0.000, 10:28:14.013
123, 26.85, 5.80, 0.00, 0.00, 0.000, 0.000, 0.000, 10:28:14.027
124, 21.84, 2.95, 0.00, 0.00, 0.000, 0.000, 0.000, 10:28:14.027
125, 19.95, 5.19, 0.00, 0.00, 0.000, 0.000, 0.000, 10:28:14.028
126, 24.22, 6.37, 0.00, 0.00, 0.000, 0.000, 0.000, 10:28:14.028
127, 28.31, 6.97, 0.00, 0.00, 0.000, 0.000, 0.000, 10:28:14.042
128, 21.43, 2.45, 0.00, 0.00, 0.000, 0.000, 0.000, 10:28:14.042
129, 15.97, 1.82, 0.00, 0.00, 0.000, 0.000, 0.000, 10:28:14.057
130, 21.71, 3.84, 0.00, 0.00, 0.000, 0.000, 0.000, 10:28:14.057
131, 28.48, 7.55, 0.00, 0.00, 0.000, 0.000, 0.000, 10:28:14.058
132, 19.07, 2.60, 0.00, 0.00, 0.000, 0.000, 0.000, 10:28:14.058
133, 19.17, -2.46, 0.00, 0.00, 0.000, 0.000, 0.000, 10:28:14.073
134, 22.59, 7.06, 0.00, 0.00, 0.000, 0.000, 0.000, 10:28:14.073
135, 26.48, 13.35, 0.00, 0.00, 0.000, 0.000, 0.000, 10:28:14.088
136, 21.59, 0.99, 0.00, 0.00, 0.000, 0.000, 0.000, 10:28:14.088
137, 17.17, 2.69, 0.00, 0.00, 0.000, 0.000, 0.000, 10:28:14.095
138, 22.33, 0.52, 0.00, 0.00, 0.000, 0.000, 0.000, 10:28:14.095
139, 25.32, 8.17, 0.00, 0.00, 0.000, 0.000, 0.000, 10:28:14.103
140, 23.05, 1.20, 0.00, 0.00, 0.000, 0.000, 0.000, 10:28:14.103
141, 18.50, 2.39, 0.00, 0.00, 0.000, 0.000, 0.000, 10:28:14.118
142, 22.33, 5.19, 0.00, 0.00, 0.000, 0.000, 0.000, 10:28:14.118
143, 23.96, 5.85, 0.00, 0.00, 0.000, 0.000, 0.000, 10:28:14.118
144, 18.86, 1.38, 0.00, 0.00, 0.000, 0.000, 0.000, 10:28:14.119
145, 17.74, -3.47, 0.00, 0.00, 0.000, 0.000, 0.000, 10:28:14.133
146, 20.97, 5.86, 0.00, 0.00, 0.000, 0.000, 0.000, 10:28:14.133
147, 28.35, 5.82, 0.00, 0.00, 0.000, 0.000, 0.000, 10:28:14.148
148, 19.40, 2.09, 0.00, 0.00, 0.000, 0.000, 0.000, 10:28:14.148
149, 13.49, 2.27, 0.00, 0.00, 0.000, 0.000, 0.000, 10:28:14.148
150, 24.76, 6.88, 0.00, 0.00, 0.000, 0.000, 0.000, 10:28:14.148
151, 25.06, 6.65, 0.00, 0.00, 0.000, 0.000, 0.000, 10:28:14.163
152, 20.02, 8.93, 0.00, 0.00, 0.000, 0.000, 0.000, 10:28:14.163
153, 15.55, 2.39, 0.00, 0.00, 0.000, 0.000, 0.000, 10:28:14.178
154, 21.42, 0.85, 0.00, 0.00, 0.000, 0.000, 0.000, 10:28:14.178
155, 27.97, -0.19, 0.00, 0.00, 0.000, 0.000, 0.000, 10:28:14.178
156, 19.00, 5.60, 0.00, 0.00, 0.000, 0.000, 0.000, 10:28:14.178
157, 14.37, 1.93, 0.00, 0.00, 0.000, 0.000, 0.000, 10:28:14.208
158, 17.99, 4.58, 0.00, 0.00, 0.000, 0.000, 0.000, 10:28:14.208
159, 20.95, 4.77, 0.00, 0.00, 0.000, 0.000, 0.000, 10:28:14.208
160, 17.60, 1.47, 0.00, 0.00, 0.000, 0.000, 0.000, 10:28:14.208
161, 18.18, -0.82, 0.00, 0.00, 0.000, 0.000, 0.000, 10:28:14.210
162, 23.07, 5.54, 0.00, 0.00, 0.000, 0.000, 0.000, 10:28:14.210
163, 22.92, 6.12, 0.00, 0.00, 0.000, 0.000, 0.000, 10:28:14.223
164, 16.91, 1.95, 0.00, 0.00, 0.000, 0.000, 0.000, 10:28:14.223
165, 16.63, 1.58, 0.00, 0.00, 0.000, 0.000, 0.000, 10:28:14.237
166, 19.04, 4.40, 0.00, 0.00, 0.000, 0.000, 0.000, 10:28:14.238
167, 24.40, 9.45, 0.00, 0.00, 0.000, 0.000, 0.000, 10:28:14.239
168, 22.05, 4.68, 0.00, 0.00, 0.000, 0.000, 0.000, 10:28:14.239
169, 19.92, 1.75, 0.00, 0.00, 0.000, 0.000, 0.000, 10:28:14.252
170, 23.68, 5.88, 0.00, 0.00, 0.000, 0.000, 0.000, 10:28:14.253
171, 27.73, 11.13, 0.00, 0.00, 0.000, 0.000, 0.000, 10:28:14.267
172, 21.23, 4.46, 0.00, 0.00, 0.000, 0.000, 0.000, 10:28:14.267
173, 15.25, -0.93, 0.00, 0.00, 0.000, 0.000, 0.000, 10:28:14.268
174, 23.97, 7.50, 0.00, 0.00, 0.000, 0.000, 0.000, 10:28:14.268
175, 27.10, 1.77, 0.00, 0.00, 0.000, 0.000, 0.000, 10:28:14.282
176, 23.21, 4.95, 0.00, 0.00, 0.000, 0.000, 0.000, 10:28:14.283
177, 19.83, 8.24, 0.00, 0.00, 0.000, 0.000, 0.000, 10:28:14.298
178, 22.39, 6.29, 0.00, 0.00, 0.000, 0.000, 0.000, 10:28:14.298
179, 26.31, 7.35, 0.00, 0.00, 0.000, 0.000, 0.000, 10:28:14.298
180, 22.11, -2.70, 0.00, 0.00, 0.000, 0.000, 0.000, 10:28:14.299
181, 17.84, -1.20, 0.00, 0.00, 0.000, 0.000, 0.000, 10:28:14.313
182, 24.67, 12.34, 0.00, 0.00, 0.000, 0.000, 0.000, 10:28:14.313
183, 28.85, 7.98, 0.00, 0.00, 0.000, 0.000, 0.000, 10:28:14.328
184, 21.86, 5.73, 0.00, 0.00, 0.000, 0.000, 0.000, 10:28:14.328
185, 18.43, -0.39, 0.00, 0.00, 0.000, 0.000, 0.000, 10:28:14.328
186, 20.59, 4.56, 0.00, 0.00, 0.000, 0.000, 0.000, 10:28:14.328
187, 32.11, 6.25, 0.00, 0.00, 0.000, 0.000, 0.000, 10:28:14.343
188, 21.01, 0.50, 0.00, 0.00, 0.000, 0.000, 0.000, 10:28:14.343
189, 21.23, -0.36, 0.00, 0.00, 0.000, 0.000, 0.000, 10:28:14.358
190, 22.99, 5.39, 0.00, 0.00, 0.000, 0.000, 0.000, 10:28:14.358
191, 27.11, 4.32, 0.00, 0.00, 0.000, 0.000, 0.000, 10:28:14.359
192, 18.71, 17.89, 0.00, 0.00, 0.000, 0.000, 0.000, 10:28:14.359
193, 14.59, -20.91, 0.00, 0.00, 0.000, 0.000, 0.000, 10:28:14.373
194, 21.40, 6.80, 0.00, 0.00, 0.000, 0.000, 0.000, 10:28:14.373
195, 30.28, 7.36, 0.00, 0.00, 0.000, 0.000, 0.000, 10:28:14.388
196, 20.69, 6.12, 0.00, 0.00, 0.000, 0.000, 0.000, 10:28:14.388
197, 16.92, 5.60, 0.00, 0.00, 0.000, 0.000, 0.000, 10:28:14.395
198, 22.54, 4.71, 0.00, 0.00, 0.000, 0.000, 0.000, 10:28:14.395
199, 28.85, 4.68, 0.00, 0.00, 0.000, 0.000, 0.000, 10:28:14.403
200, 21.13, 4.99, 0.00, 0.00, 0.000, 0.000, 0.000, 10:28:14.403
0, 18.12, 1.79, 0.00, 0.00, 0.000, 0.000, 0.000, 10:28:14.403
1, 21.73, 3.17, 0.00, 0.00, 0.000, 0.000, 0.000, 10:28:14.418
2, 27.72, 20.23, 0.00, 0.00, 0.000, 0.000, 0.000, 10:28:14.418
3, 22.84, -1.86, 0.00, 0.00, 0.000, 0.000, 0.000, 10:28:14.433
4, 17.06, 0.20, 0.00, 0.00, 0.000, 0.000, 0.000, 10:28:14.434
5, 25.22, 7.97, 0.00, 0.00, 0.000, 0.000, 0.000, 10:28:14.434
6, 26.64, 1.35, 0.00, 0.00, 0.000, 0.000, 0.000, 10:28:14.434
7, 21.12, 3.52, 0.00, 0.00, 0.000, 0.000, 0.000, 10:28:14.448
8, 13.55, 1.48, 0.00, 0.00, 0.000, 0.000, 0.000, 10:28:14.449
9, 20.47, 2.93, 0.00, 0.00, 0.000, 0.000, 0.000, 10:28:14.463
10, 27.69, 7.30, 0.00, 0.00, 0.000, 0.000, 0.000, 10:28:14.463
11, 20.89, -1.18, 0.00, 0.00, 0.000, 0.000, 0.000, 10:28:14.463
12, 15.55, 5.82, 0.00, 0.00, 0.000, 0.000, 0.000, 10:28:14.463
13, 23.94, 23.30, 0.00, 0.00, 0.000, 0.000, 0.000, 10:28:14.482
14, 25.01, 0.59, 0.00, 0.00, 0.000, 0.000, 0.000, 10:28:14.482
15, 20.78, -1.23, 0.00, 0.00, 0.000, 0.000, 0.000, 10:28:14.494
16, 15.57, 1.99, 0.00, 0.00, 0.000, 0.000, 0.000, 10:28:14.494
17, 22.23, 4.89, 0.00, 0.00, 0.000, 0.000, 0.000, 10:28:14.495
18, 25.85, 6.48, 0.00, 0.00, 0.000, 0.000, 0.000, 10:28:14.495
19, 21.84, 5.56, 0.00, 0.00, 0.000, 0.000, 0.000, 10:28:14.509
20, 15.70, 6.05, 0.00, 0.00, 0.000, 0.000, 0.000, 10:28:14.509
21, 21.96, 7.12, 0.00, 0.00, 0.000, 0.000, 0.000, 10:28:14.523
22, 25.08, 4.35, 0.00, 0.00, 0.000, 0.000, 0.000, 10:28:14.523
23, 19.19, 3.14, 0.00, 0.00, 0.000, 0.000, 0.000, 10:28:14.523
24, 17.03, -0.04, 0.00, 0.00, 0.000, 0.000, 0.000, 10:28:14.523
25, 22.51, 6.62, 0.00, 0.00, 0.000, 0.000, 0.000, 10:28:14.537
26, 24.72, 11.27, 0.00, 0.00, 0.000, 0.000, 0.000, 10:28:14.537
27, 23.05, 2.42, 0.00, 0.00, 0.000, 0.000, 0.000, 10:28:14.554
28, 17.73, 3.34, 0.00, 0.00, 0.000, 0.000, 0.000, 10:28:14.554
29, 20.23, 6.20, 0.00, 0.00, 0.000, 0.000, 0.000, 10:28:14.554
30, 25.23, 3.81, 0.00, 0.00, 0.000, 0.000, 0.000, 10:28:14.554
31, 18.72, 3.43, 0.00, 0.00, 0.000, 0.000, 0.000, 10:28:14.567
32, 16.25, 4.58, 0.00, 0.00, 0.000, 0.000, 0.000, 10:28:14.568
33, 20.69, 10.48, 0.00, 0.00, 0.000, 0.000, 0.000, 10:28:14.583
34, 28.62, 5.43, 0.00, 0.00, 0.000, 0.000, 0.000, 10:28:14.583
35, 20.49, 5.33, 0.00, 0.00, 0.000, 0.000, 0.000, 10:28:14.583
36, 16.69, 3.50, 0.00, 0.00, 0.000, 0.000, 0.000, 10:28:14.583
37, 19.85, 4.74, 0.00, 0.00, 0.000, 0.000, 0.000, 10:28:14.598
38, 24.38, 5.46, 0.00, 0.00, 0.000, 0.000, 0.000, 10:28:14.598
39, 20.48, 3.13, 0.00, 0.00, 0.000, 0.000, 0.000, 10:28:14.613
40, 15.97, 2.76, 0.00, 0.00, 0.000, 0.000, 0.000, 10:28:14.613
