%OpenBCI Raw EEG Data
%
%Sample Rate = 200.0 Hz
%First Column = SampleIndex
%Last Column = Timestamp 
%Other Columns = EEG data in microvolts followed by Accel Data (in G) interleaved with Aux Data
0, 75.53, 130.69, 0.00, 2.61, 0.000, 0.000, 0.000, 15:29:32.561
1, 74.18, 126.23, 0.00, 12.95, 0.000, 0.000, 0.000, 15:29:32.577
2, 69.68, 121.92, 0.00, 12.04, 0.000, 0.000, 0.000, 15:29:32.577
3, 68.56, 122.15, 0.00, 10.47, 0.000, 0.000, 0.000, 15:29:32.592
4, 74.82, 124.84, 0.00, 6.54, 0.000, 0.000, 0.000, 15:29:32.592
5, 70.92, 117.67, 0.00, 10.58, 0.000, 0.000, 0.000, 15:29:32.593
6, 64.39, 107.05, 0.00, 9.80, 0.000, 0.000, 0.000, 15:29:32.593
7, 60.27, 88.01, 0.00, 7.84, 0.000, 0.000, 0.000, 15:29:32.607
8, 60.38, 84.07, 0.00, 9.11, 0.000, 0.000, 0.000, 15:29:32.607
9, 60.90, 87.36, 0.00, 8.47, 0.000, 0.000, 0.000, 15:29:32.621
10, 54.10, 83.70, 0.00, 4.91, 0.000, 0.000, 0.000, 15:29:32.621
11, 53.92, 85.27, 0.00, 12.18, 0.000, 0.000, 0.000, 15:29:32.622
12, 61.90, 92.14, 0.00, 8.23, 0.000, 0.000, 0.000, 15:29:32.623
13, 64.46, 94.32, 0.00, 7.54, 0.000, 0.000, 0.000, 15:29:32.636
14, 59.77, 86.71, 0.00, 7.51, 0.000, 0.000, 0.000, 15:29:32.636
15, 63.53, 93.66, 0.00, 9.15, 0.000, 0.000, 0.000, 15:29:32.651
16, 65.79, 101.85, 0.00, 12.37, 0.000, 0.000, 0.000, 15:29:32.651
17, 71.87, 107.65, 0.00, 11.26, 0.000, 0.000, 0.000, 15:29:32.665
18, 73.58, 120.95, 0.00, 9.14, 0.000, 0.000, 0.000, 15:29:32.665
19, 74.46, 126.08, 0.00, 7.01, 0.000, 0.000, 0.000, 15:29:32.666
20, 77.07, 125.44, 0.00, 6.32, 0.000, 0.000, 0.000, 15:29:32.666
21, 75.74, 119.31, 0.00, 9.89, 0.000, 0.000, 0.000, 15:29:32.681
22, 70.15, 115.47, 0.00, 7.15, 0.000, 0.000, 0.000, 15:29:32.681
23, 69.26, 109.98, 0.00, 7.60, 0.000, 0.000, 0.000, 15:29:32.681
24, 70.03, 117.14, 0.00, 8.34, 0.000, 0.000, 0.000, 15:29:32.681
25, 72.09, 112.82, 0.00, 5.44, 0.000, 0.000, 0.000, 15:29:32.696
26, 62.53, 89.77, 0.00, 7.59, 0.000, 0.000, 0.000, 15:29:32.696
27, 61.96, 76.95, 0.00, 6.77, 0.000, 0.000, 0.000, 15:29:32.711
28, 61.33, 80.91, 0.00, 9.78, 0.000, 0.000, 0.000, 15:29:32.711
29, 62.49, 78.19, 0.00, 5.87, 0.000, 0.000, 0.000, 15:29:32.711
30, 60.76, 76.10, 0.00, 7.87, 0.000, 0.000, 0.000, 15:29:32.711
31, 62.37, 86.04, 0.00, 8.62, 0.000, 0.000, 0.000, 15:29:32.726
32, 63.83, 93.07, 0.00, 12.09, 0.000, 0.000, 0.000, 15:29:32.726
33, 62.26, 96.18, 0.00, 7.58, 0.000, 0.000, 0.000, 15:29:32.741
34, 58.40, 92.70, 0.00, 8.08, 0.000, 0.000, 0.000, 15:29:32.741
35, 57.27, 94.14, 0.00, 8.70, 0.000, 0.000, 0.000, 15:29:32.742
36, 65.74, 107.35, 0.00, 12.37, 0.000, 0.000, 0.000, 15:29:32.742
37, 72.27, 125.17, 0.00, 14.40, 0.000, 0.000, 0.000, 15:29:32.756
38, 71.63, 126.96, 0.00, 10.55, 0.000, 0.000, 0.000, 15:29:32.757
39, 69.31, 129.31, 0.00, 11.02, 0.000, 0.000, 0.000, 15:29:32.771
40, 73.76, 131.22, 0.00, 6.44, 0.000, 0.000, 0.000, 15:29:32.772
41, 73.90, 127.94, 0.00, 15.92, 0.000, 0.000, 0.000, 15:29:32.772
42, 72.48, 123.31, 0.00, 9.71, 0.000, 0.000, 0.000, 15:29:32.773
43, 69.51, 125.63, 0.00, 6.41, 0.000, 0.000, 0.000, 15:29:32.786
44, 71.60, 124.40, 0.00, 3.96, 0.000, 0.000, 0.000, 15:29:32.787
45, 72.21, 125.32, 0.00, 5.10, 0.000, 0.000, 0.000, 15:29:32.801
46, 69.69, 119.42, 0.00, 9.26, 0.000, 0.000, 0.000, 15:29:32.802
47, 65.77, 111.29, 0.00, 14.60, 0.000, 0.000, 0.000, 15:29:32.802
48, 61.70, 98.08, 0.00, 11.02, 0.000, 0.000, 0.000, 15:29:32.802
49, 60.79, 91.60, 0.00, 5.81, 0.000, 0.000, 0.000, 15:29:32.816
50, 53.28, 84.00, 0.00, 9.31, 0.000, 0.000, 0.000, 15:29:32.816
51, 52.46, 95.06, 0.00, 11.87, 0.000, 0.000, 0.000, 15:29:32.831
52, 60.48, 100.48, 0.00, 9.60, 0.000, 0.000, 0.000, 15:29:32.831
53, 60.72, 99.44, 0.00, 11.31, 0.000, 0.000, 0.000, 15:29:32.832
54, 54.32, 99.77, 0.00, 13.70, 0.000, 0.000, 0.000, 15:29:32.832
55, 52.24, 103.87, 0.00, 9.05, 0.000, 0.000, 0.000, 15:29:32.847
56, 58.56, 109.08, 0.00, 13.10, 0.000, 0.000, 0.000, 15:29:32.847
57, 57.25, 105.30, 0.00, 10.15, 0.000, 0.000, 0.000, 15:29:32.862
58, 55.62, 108.99, 0.00, 12.94, 0.000, 0.000, 0.000, 15:29:32.862
59, 57.01, 120.88, 0.00, 9.91, 0.000, 0.000, 0.000, 15:29:32.862
60, 62.12, 126.80, 0.00, 10.12, 0.000, 0.000, 0.000, 15:29:32.862
61, 63.73, 127.51, 0.00, 12.80, 0.000, 0.000, 0.000, 15:29:32.876
62, 61.64, 124.99, 0.00, 12.95, 0.000, 0.000, 0.000, 15:29:32.876
63, 59.28, 122.35, 0.00, 9.96, 0.000, 0.000, 0.000, 15:29:32.893
64, 61.77, 129.05, 0.00, 8.51, 0.000, 0.000, 0.000, 15:29:32.893
65, 62.54, 125.71, 0.00, 8.38, 0.000, 0.000, 0.000, 15:29:32.893
66, 61.47, 127.64, 0.00, 9.32, 0.000, 0.000, 0.000, 15:29:32.893
67, 58.19, 123.83, 0.00, 12.12, 0.000, 0.000, 0.000, 15:29:32.906
68, 61.78, 125.73, 0.00, 11.49, 0.000, 0.000, 0.000, 15:29:32.907
69, 60.39, 120.36, 0.00, 5.80, 0.000, 0.000, 0.000, 15:29:32.921
70, 59.41, 120.43, 0.00, 11.65, 0.000, 0.000, 0.000, 15:29:32.921
71, 57.89, 113.06, 0.00, 10.22, 0.000, 0.000, 0.000, 15:29:32.921
72, 60.07, 107.05, 0.00, 7.94, 0.000, 0.000, 0.000, 15:29:32.921
73, 54.77, 104.38, 0.00, 11.36, 0.000, 0.000, 0.000, 15:29:32.936
74, 54.05, 95.78, 0.00, 9.05, 0.000, 0.000, 0.000, 15:29:32.936
75, 53.73, 102.25, 0.00, 10.70, 0.000, 0.000, 0.000, 15:29:32.951
76, 59.48, 112.24, 0.00, 10.42, 0.000, 0.000, 0.000, 15:29:32.951
77, 66.24, 122.82, 0.00, 11.63, 0.000, 0.000, 0.000, 15:29:32.951
78, 67.56, 129.82, 0.00, 11.79, 0.000, 0.000, 0.000, 15:29:32.952
79, 68.31, 130.79, 0.00, 5.78, 0.000, 0.000, 0.000, 15:29:32.967
80, 75.76, 132.07, 0.00, 4.43, 0.000, 0.000, 0.000, 15:29:32.967
81, 72.00, 133.97, 0.00, 5.80, 0.000, 0.000, 0.000, 15:29:32.981
82, 70.29, 129.20, 0.00, 2.00, 0.000, 0.000, 0.000, 15:29:32.981
83, 69.64, 133.48, 0.00, 10.80, 0.000, 0.000, 0.000, 15:29:32.988
84, 71.14, 134.50, 0.00, 8.82, 0.000, 0.000, 0.000, 15:29:32.988
85, 72.00, 126.86, 0.00, 8.63, 0.000, 0.000, 0.000, 15:29:32.996
86, 66.07, 119.58, 0.00, 10.48, 0.000, 0.000, 0.000, 15:29:32.996
87, 66.41, 124.84, 0.00, 6.23, 0.000, 0.000, 0.000, 15:29:33.011
88, 70.89, 127.88, 0.00, 4.82, 0.000, 0.000, 0.000, 15:29:33.011
89, 68.23, 121.35, 0.00, 9.64, 0.000, 0.000, 0.000, 15:29:33.011
90, 55.71, 100.21, 0.00, 7.81, 0.000, 0.000, 0.000, 15:29:33.011
91, 54.22, 92.58, 0.00, 7.01, 0.000, 0.000, 0.000, 15:29:33.025
92, 60.41, 101.30, 0.00, 9.45, 0.000, 0.000, 0.000, 15:29:33.027
93, 60.78, 104.41, 0.00, 10.74, 0.000, 0.000, 0.000, 15:29:33.042
94, 57.28, 101.18, 0.00, 11.87, 0.000, 0.000, 0.000, 15:29:33.042
95, 56.27, 104.37, 0.00, 11.05, 0.000, 0.000, 0.000, 15:29:33.042
96, 60.78, 107.25, 0.00, 9.22, 0.000, 0.000, 0.000, 15:29:33.042
97, 67.76, 127.44, 0.00, 6.95, 0.000, 0.000, 0.000, 15:29:33.056
98, 68.31, 127.22, 0.00, 4.82, 0.000, 0.000, 0.000, 15:29:33.056
99, 71.45, 130.93, 0.00, 8.50, 0.000, 0.000, 0.000, 15:29:33.072
100, 73.64, 131.91, 0.00, 7.90, 0.000, 0.000, 0.000, 15:29:33.072
101, 73.17, 122.75, 0.00, 6.62, 0.000, 0.000, 0.000, 15:29:33.073
102, 63.91, 121.62, 0.00, 11.59, 0.000, 0.000, 0.000, 15:29:33.073
103, 65.93, 124.38, 0.00, 12.87, 0.000, 0.000, 0.000, 15:29:33.086
104, 69.63, 122.94, 0.00, 4.37, 0.000, 0.000, 0.000, 15:29:33.086
105, 67.39, 120.50, 0.00, 7.18, 0.000, 0.000, 0.000, 15:29:33.101
106, 63.28, 114.94, 0.00, 8.08, 0.000, 0.000, 0.000, 15:29:33.101
107, 58.61, 102.77, 0.00, 8.78, 0.000, 0.000, 0.000, 15:29:33.101
108, 61.17, 97.90, 0.00, 10.86, 0.000, 0.000, 0.000, 15:29:33.102
109, 60.05, 99.73, 0.00, 12.29, 0.000, 0.000, 0.000, 15:29:33.116
110, 54.45, 93.27, 0.00, 11.60, 0.000, 0.000, 0.000, 15:29:33.116
111, 51.89, 97.22, 0.00, 10.08, 0.000, 0.000, 0.000, 15:29:33.131
112, 56.44, 104.95, 0.00, 10.30, 0.000, 0.000, 0.000, 15:29:33.131
113, 55.80, 106.41, 0.00, 5.84, 0.000, 0.000, 0.000, 15:29:33.131
114, 59.15, 110.38, 0.00, 6.04, 0.000, 0.000, 0.000, 15:29:33.131
115, 53.54, 112.05, 0.00, 8.79, 0.000, 0.000, 0.000, 15:29:33.145
116, 64.03, 125.05, 0.00, 7.17, 0.000, 0.000, 0.000, 15:29:33.145
117, 67.22, 139.22, 0.00, 8.59, 0.000, 0.000, 0.000, 15:29:33.163
118, 65.50, 131.97, 0.00, 8.63, 0.000, 0.000, 0.000, 15:29:33.164
119, 68.60, 136.39, 0.00, 9.58, 0.000, 0.000, 0.000, 15:29:33.164
120, 73.31, 141.75, 0.00, 8.08, 0.000, 0.000, 0.000, 15:29:33.164
121, 71.39, 135.88, 0.00, 11.73, 0.000, 0.000, 0.000, 15:29:33.176
122, 65.56, 125.51, 0.00, 11.78, 0.000, 0.000, 0.000, 15:29:33.177
123, 63.90, 124.74, 0.00, 9.69, 0.000, 0.000, 0.000, 15:29:33.191
124, 67.51, 132.38, 0.00, 4.17, 0.000, 0.000, 0.000, 15:29:33.191
125, 67.76, 128.28, 0.00, 6.19, 0.000, 0.000, 0.000, 15:29:33.192
126, 63.19, 120.68, 0.00, 3.67, 0.000, 0.000, 0.000, 15:29:33.192
127, 60.60, 119.01, 0.00, 5.71, 0.000, 0.000, 0.000, 15:29:33.206
128, 60.71, 123.39, 0.00, 7.28, 0.000, 0.000, 0.000, 15:29:33.207
129, 59.38, 121.41, 0.00, 9.67, 0.000, 0.000, 0.000, 15:29:33.222
130, 57.75, 118.54, 0.00, 8.66, 0.000, 0.000, 0.000, 15:29:33.222
131, 57.10, 119.13, 0.00, 6.07, 0.000, 0.000, 0.000, 15:29:33.222
132, 57.48, 126.03, 0.00, 7.04, 0.000, 0.000, 0.000, 15:29:33.223
133, 60.92, 125.91, 0.00, 12.39, 0.000, 0.000, 0.000, 15:29:33.237
134, 54.54, 120.47, 0.00, 7.68, 0.000, 0.000, 0.000, 15:29:33.237
135, 51.99, 125.95, 0.00, 3.92, 0.000, 0.000, 0.000, 15:29:33.251
136, 60.81, 133.38, 0.00, 9.81, 0.000, 0.000, 0.000, 15:29:33.251
137, 58.01, 131.35, 0.00, 8.73, 0.000, 0.000, 0.000, 15:29:33.252
138, 53.25, 125.59, 0.00, 11.01, 0.000, 0.000, 0.000, 15:29:33.252
139, 53.64, 124.14, 0.00, 8.74, 0.000, 0.000, 0.000, 15:29:33.267
140, 55.35, 126.15, 0.00, 11.96, 0.000, 0.000, 0.000, 15:29:33.268
141, 55.06, 125.62, 0.00, 7.13, 0.000, 0.000, 0.000, 15:29:33.281
142, 53.62, 122.98, 0.00, 8.08, 0.000, 0.000, 0.000, 15:29:33.281
143, 51.00, 122.38, 0.00, 7.84, 0.000, 0.000, 0.000, 15:29:33.282
144, 53.50, 126.76, 0.00, 7.99, 0.000, 0.000, 0.000, 15:29:33.282
145, 51.83, 124.93, 0.00, 11.75, 0.000, 0.000, 0.000, 15:29:33.297
146, 52.69, 121.90, 0.00, 15.06, 0.000, 0.000, 0.000, 15:29:33.297
147, 52.73, 122.40, 0.00, 7.55, 0.000, 0.000, 0.000, 15:29:33.311
148, 53.80, 126.28, 0.00, 6.37, 0.000, 0.000, 0.000, 15:29:33.311
149, 51.16, 122.87, 0.00, 5.44, 0.000, 0.000, 0.000, 15:29:33.311
150, 47.18, 121.96, 0.00, 8.79, 0.000, 0.000, 0.000, 15:29:33.311
151, 50.82, 126.02, 0.00, 11.44, 0.000, 0.000, 0.000, 15:29:33.326
152, 50.66, 125.89, 0.00, 5.87, 0.000, 0.000, 0.000, 15:29:33.326
153, 56.49, 122.35, 0.00, 10.16, 0.000, 0.000, 0.000, 15:29:33.341
154, 52.85, 119.11, 0.00, 6.48, 0.000, 0.000, 0.000, 15:29:33.341
155, 51.46, 128.34, 0.00, 5.85, 0.000, 0.000, 0.000, 15:29:33.341
156, 55.79, 127.71, 0.00, 12.71, 0.000, 0.000, 0.000, 15:29:33.341
157, 54.48, 126.25, 0.00, 13.09, 0.000, 0.000, 0.000, 15:29:33.355
158, 52.71, 120.55, 0.00, 7.82, 0.000, 0.000, 0.000, 15:29:33.356
159, 51.57, 127.69, 0.00, 9.64, 0.000, 0.000, 0.000, 15:29:33.371
160, 56.92, 128.99, 0.00, 10.34, 0.000, 0.000, 0.000, 15:29:33.371
161, 55.82, 122.46, 0.00, 10.77, 0.000, 0.000, 0.000, 15:29:33.371
162, 53.40, 119.44, 0.00, 9.97, 0.000, 0.000, 0.000, 15:29:33.371
163, 54.36, 125.27, 0.00, 10.40, 0.000, 0.000, 0.000, 15:29:33.385
164, 52.67, 132.10, 0.00, 8.25, 0.000, 0.000, 0.000, 15:29:33.386
165, 58.83, 128.72, 0.00, 10.13, 0.000, 0.000, 0.000, 15:29:33.401
166, 49.53, 124.05, 0.00, 5.07, 0.000, 0.000, 0.000, 15:29:33.401
167, 49.25, 123.01, 0.00, 7.30, 0.000, 0.000, 0.000, 15:29:33.408
168, 55.66, 128.61, 0.00, 10.61, 0.000, 0.000, 0.000, 15:29:33.408
169, 53.86, 129.45, 0.00, 10.24, 0.000, 0.000, 0.000, 15:29:33.415
170, 46.56, 114.92, 0.00, 9.86, 0.000, 0.000, 0.000, 15:29:33.416
171, 46.67, 122.37, 0.00, 7.61, 0.000, 0.000, 0.000, 15:29:33.431
172, 51.45, 128.84, 0.00, 8.86, 0.000, 0.000, 0.000, 15:29:33.431
173, 47.96, 121.59, 0.00, 9.92, 0.000, 0.000, 0.000, 15:29:33.431
174, 52.17, 123.04, 0.00, 9.66, 0.000, 0.000, 0.000, 15:29:33.431
175, 54.26, 121.92, 0.00, 7.48, 0.000, 0.000, 0.000, 15:29:33.446
176, 54.83, 128.15, 0.00, 6.69, 0.000, 0.000, 0.000, 15:29:33.446
177, 56.09, 124.61, 0.00, 6.18, 0.000, 0.000, 0.000, 15:29:33.461
178, 53.48, 120.24, 0.00, 8.98, 0.000, 0.000, 0.000, 15:29:33.461
179, 51.74, 122.95, 0.00, 12.56, 0.000, 0.000, 0.000, 15:29:33.461
180, 55.16, 122.95, 0.00, 6.63, 0.000, 0.000, 0.000, 15:29:33.461
181, 55.66, 126.06, 0.00, 4.64, 0.000, 0.000, 0.000, 15:29:33.476
182, 52.23, 120.65, 0.00, 7.11, 0.000, 0.000, 0.000, 15:29:33.476
183, 53.70, 127.59, 0.00, 8.59, 0.000, 0.000, 0.000, 15:29:33.491
184, 50.83, 125.14, 0.00, 10.74, 0.000, 0.000, 0.000, 15:29:33.492
185, 49.19, 124.08, 0.00, 8.63, 0.000, 0.000, 0.000, 15:29:33.492
186, 48.97, 124.99, 0.00, 4.33, 0.000, 0.000, 0.000, 15:29:33.493
187, 51.46, 130.85, 0.00, 10.68, 0.000, 0.000, 0.000, 15:29:33.507
188, 55.63, 127.96, 0.00, 8.70, 0.000, 0.000, 0.000, 15:29:33.507
189, 59.13, 127.93, 0.00, 7.59, 0.000, 0.000, 0.000, 15:29:33.521
190, 51.04, 127.39, 0.00, 7.27, 0.000, 0.000, 0.000, 15:29:33.521
191, 52.07, 129.20, 0.00, 11.95, 0.000, 0.000, 0.000, 15:29:33.521
192, 58.54, 135.32, 0.00, 11.34, 0.000, 0.000, 0.000, 15:29:33.521
193, 55.20, 134.96, 0.00, 13.74, 0.000, 0.000, 0.000, 15:29:33.536
194, 46.88, 126.44, 0.00, 15.22, 0.000, 0.000, 0.000, 15:29:33.536
195, 52.25, 134.84, 0.00, 14.98, 0.000, 0.000, 0.000, 15:29:33.550
196, 55.33, 135.41, 0.00, 10.08, 0.000, 0.000, 0.000, 15:29:33.551
197, 54.33, 125.14, 0.00, 1.51, 0.000, 0.000, 0.000, 15:29:33.551
198, 53.62, 121.55, 0.00, 7.09, 0.000, 0.000, 0.000, 15:29:33.551
199, 55.36, 124.07, 0.00, 6.34, 0.000, 0.000, 0.000, 15:29:33.566
200, 58.31, 127.38, 0.00, 4.63, 0.000, 0.000, 0.000, 15:29:33.566
0, 58.50, 125.17, 0.00, 7.88, 0.000, 0.000, 0.000, 15:29:33.567
1, 51.77, 120.25, 0.00, 4.97, 0.000, 0.000, 0.000, 15:29:33.582
2, 53.41, 121.13, 0.00, 9.33, 0.000, 0.000, 0.000, 15:29:33.582
3, 56.39, 129.50, 0.00, 4.83, 0.000, 0.000, 0.000, 15:29:33.596
4, 56.51, 128.34, 0.00, 6.84, 0.000, 0.000, 0.000, 15:29:33.596
5, 50.62, 119.67, 0.00, 10.97, 0.000, 0.000, 0.000, 15:29:33.597
6, 50.74, 126.48, 0.00, 10.31, 0.000, 0.000, 0.000, 15:29:33.597
7, 52.25, 128.18, 0.00, 9.08, 0.000, 0.000, 0.000, 15:29:33.612
8, 50.34, 127.42, 0.00, 7.39, 0.000, 0.000, 0.000, 15:29:33.612
9, 48.38, 121.97, 0.00, 8.43, 0.000, 0.000, 0.000, 15:29:33.626
10, 48.21, 120.50, 0.00, 11.86, 0.000, 0.000, 0.000, 15:29:33.626
11, 54.44, 123.73, 0.00, 6.79, 0.000, 0.000, 0.000, 15:29:33.626
12, 51.49, 120.41, 0.00, 8.99, 0.000, 0.000, 0.000, 15:29:33.628
13, 48.73, 117.48, 0.00, 12.95, 0.000, 0.000, 0.000, 15:29:33.643
14, 49.45, 120.18, 0.00, 7.91, 0.000, 0.000, 0.000, 15:29:33.643
15, 52.50, 124.74, 0.00, 10.87, 0.000, 0.000, 0.000, 15:29:33.657
16, 50.16, 120.26, 0.00, 3.96, 0.000, 0.000, 0.000, 15:29:33.657
17, 50.91, 114.99, 0.00, 12.32, 0.000, 0.000, 0.000, 15:29:33.658
18, 50.28, 116.17, 0.00, 9.17, 0.000, 0.000, 0.000, 15:29:33.658
19, 53.68, 119.43, 0.00, 11.72, 0.000, 0.000, 0.000, 15:29:33.672
20, 53.15, 115.08, 0.00, 10.91, 0.000, 0.000, 0.000, 15:29:33.672
21, 46.07, 105.52, 0.00, 9.42, 0.000, 0.000, 0.000, 15:29:33.686
22, 47.88, 105.12, 0.00, 4.72, 0.000, 0.000, 0.000, 15:29:33.686
23, 50.58, 109.35, 0.00, 8.51, 0.000, 0.000, 0.000, 15:29:33.686
24, 55.83, 120.16, 0.00, 10.85, 0.000, 0.000, 0.000, 15:29:33.687
25, 51.45, 120.01, 0.00, 7.32, 0.000, 0.000, 0.000, 15:29:33.701
26, 50.96, 123.22, 0.00, 5.12, 0.000, 0.000, 0.000, 15:29:33.701
27, 56.27, 124.86, 0.00, 4.18, 0.000, 0.000, 0.000, 15:29:33.716
28, 53.72, 126.21, 0.00, 7.88, 0.000, 0.000, 0.000, 15:29:33.716
29, 49.73, 117.12, 0.00, 8.33, 0.000, 0.000, 0.000, 15:29:33.717
30, 50.24, 126.08, 0.00, 10.29, 0.000, 0.000, 0.000, 15:29:33.717
31, 55.94, 130.68, 0.00, 8.94, 0.000, 0.000, 0.000, 15:29:33.731
32, 56.33, 124.38, 0.00, 9.05, 0.000, 0.000, 0.000, 15:29:33.731
33, 52.77, 124.66, 0.00, 10.75, 0.000, 0.000, 0.000, 15:29:33.746
34, 55.69, 127.09, 0.00, 6.89, 0.000, 0.000, 0.000, 15:29:33.746
35, 60.29, 126.16, 0.00, 10.40, 0.000, 0.000, 0.000, 15:29:33.746
36, 54.87, 122.17, 0.00, 9.79, 0.000, 0.000, 0.000, 15:29:33.747
37, 56.92, 122.84, 0.00, 8.33, 0.000, 0.000, 0.000, 15:29:33.760
38, 56.44, 116.79, 0.00, 8.51, 0.000, 0.000, 0.000, 15:29:33.761
39, 58.51, 125.12, 0.00, 6.10, 0.000, 0.000, 0.000, 15:29:33.776
40, 56.11, 124.56, 0.00, 10.49, 0.000, 0.000, 0.000, 15:29:33.776
41, 52.42, 120.51, 0.00, 7.50, 0.000, 0.000, 0.000, 15:29:33.777
42, 50.93, 121.32, 0.00, 6.47, 0.000, 0.000, 0.000, 15:29:33.777
43, 55.27, 130.27, 0.00, 9.67, 0.000, 0.000, 0.000, 15:29:33.791
44, 52.94, 122.94, 0.00, 5.06, 0.000, 0.000, 0.000, 15:29:33.791
45, 51.29, 118.85, 0.00, 8.28, 0.000, 0.000, 0.000, 15:29:33.807
46, 55.22, 125.24, 0.00, 6.23, 0.000, 0.000, 0.000, 15:29:33.807
47, 56.12, 125.07, 0.00, 11.91, 0.000, 0.000, 0.000, 15:29:33.808
48, 55.80, 119.33, 0.00, 12.84, 0.000, 0.000, 0.000, 15:29:33.808
49, 56.55, 118.05, 0.00, 10.42, 0.000, 0.000, 0.000, 15:29:33.821
50, 52.19, 119.22, 0.00, 6.70, 0.000, 0.000, 0.000, 15:29:33.821
51, 59.68, 124.45, 0.00, 10.74, 0.000, 0.000, 0.000, 15:29:33.835
52, 58.10, 120.82, 0.00, 10.61, 0.000, 0.000, 0.000, 15:29:33.836
53, 52.04, 117.53, 0.00, 12.74, 0.000, 0.000, 0.000, 15:29:33.836
54, 56.62, 121.87, 0.00, 11.84, 0.000, 0.000, 0.000, 15:29:33.836
55, 58.89, 125.93, 0.00, 11.95, 0.000, 0.000, 0.000, 15:29:33.852
56, 57.20, 123.39, 0.00, 8.63, 0.000, 0.000, 0.000, 15:29:33.852
57, 57.60, 121.74, 0.00, 9.81, 0.000, 0.000, 0.000, 15:29:33.865
58, 53.94, 123.72, 0.00, 3.52, 0.000, 0.000, 0.000, 15:29:33.867
59, 59.46, 126.27, 0.00, 4.92, 0.000, 0.000, 0.000, 15:29:33.867
60, 63.11, 125.84, 0.00, 9.10, 0.000, 0.000, 0.000, 15:29:33.867
61, 61.51, 121.58, 0.00, 7.57, 0.000, 0.000, 0.000, 15:29:33.882
62, 60.88, 126.82, 0.00, 6.32, 0.000, 0.000, 0.000, 15:29:33.882
63, 66.55, 128.94, 0.00, 8.27, 0.000, 0.000, 0.000, 15:29:33.896
64, 69.26, 131.67, 0.00, 7.10, 0.000, 0.000, 0.000, 15:29:33.897
65, 65.68, 121.93, 0.00, 9.26, 0.000, 0.000, 0.000, 15:29:33.903
66, 65.03, 128.09, 0.00, 11.24, 0.000, 0.000, 0.000, 15:29:33.903
67, 71.29, 136.65, 0.00, 8.06, 0.000, 0.000, 0.000, 15:29:33.910
68, 69.25, 128.61, 0.00, 7.92, 0.000, 0.000, 0.000, 15:29:33.910
69, 67.57, 128.19, 0.00, 8.94, 0.000, 0.000, 0.000, 15:29:33.926
70, 67.52, 130.99, 0.00, 7.52, 0.000, 0.000, 0.000, 15:29:33.926
71, 65.68, 128.88, 0.00, 5.67, 0.000, 0.000, 0.000, 15:29:33.927
72, 69.18, 130.52, 0.00, 2.53, 0.000, 0.000, 0.000, 15:29:33.927
73, 65.58, 120.68, 0.00, 8.31, 0.000, 0.000, 0.000, 15:29:33.940
74, 61.51, 113.82, 0.00, 9.24, 0.000, 0.000, 0.000, 15:29:33.941
75, 66.91, 127.71, 0.00, 8.41, 0.000, 0.000, 0.000, 15:29:33.956
76, 68.77, 128.91, 0.00, 10.53, 0.000, 0.000, 0.000, 15:29:33.956
77, 67.85, 119.44, 0.00, 8.51, 0.000, 0.000, 0.000, 15:29:33.957
78, 67.24, 128.92, 0.00, 7.28, 0.000, 0.000, 0.000, 15:29:33.957
79, 73.31, 131.58, 0.00, 9.77, 0.000, 0.000, 0.000, 15:29:33.971
80, 72.36, 124.45, 0.00, 7.38, 0.000, 0.000, 0.000, 15:29:33.971
81, 67.32, 121.95, 0.00, 5.91, 0.000, 0.000, 0.000, 15:29:33.987
82, 63.43, 116.05, 0.00, 6.17, 0.000, 0.000, 0.000, 15:29:33.987
83, 67.05, 121.75, 0.00, 7.19, 0.000, 0.000, 0.000, 15:29:33.987
84, 62.98, 116.09, 0.00, 8.69, 0.000, 0.000, 0.000, 15:29:33.988
85, 49.93, 98.69, 0.00, 9.49, 0.000, 0.000, 0.000, 15:29:34.002
86, 49.06, 87.00, 0.00, 11.08, 0.000, 0.000, 0.000, 15:29:34.002
87, 52.04, 93.25, 0.00, 12.69, 0.000, 0.000, 0.000, 15:29:34.017
88, 55.11, 95.55, 0.00, 11.01, 0.000, 0.000, 0.000, 15:29:34.017
89, 51.25, 96.63, 0.00, 9.32, 0.000, 0.000, 0.000, 15:29:34.018
90, 54.51, 101.25, 0.00, 9.59, 0.000, 0.000, 0.000, 15:29:34.018
91, 60.86, 114.36, 0.00, 10.30, 0.000, 0.000, 0.000, 15:29:34.031
92, 65.73, 120.17, 0.00, 10.39, 0.000, 0.000, 0.000, 15:29:34.032
93, 58.67, 121.20, 0.00, 5.77, 0.000, 0.000, 0.000, 15:29:34.047
94, 58.86, 123.17, 0.00, 7.58, 0.000, 0.000, 0.000, 15:29:34.047
95, 59.79, 127.40, 0.00, 5.01, 0.000, 0.000, 0.000, 15:29:34.047
96, 60.02, 124.57, 0.00, 8.61, 0.000, 0.000, 0.000, 15:29:34.047
97, 59.12, 119.42, 0.00, 12.36, 0.000, 0.000, 0.000, 15:29:34.061
98, 55.04, 111.38, 0.00, 8.73, 0.000, 0.000, 0.000, 15:29:34.061
99, 59.43, 119.28, 0.00, 6.46, 0.000, 0.000, 0.000, 15:29:34.078
100, 61.64, 116.01, 0.00, 7.45, 0.000, 0.000, 0.000, 15:29:34.079
101, 54.70, 105.31, 0.00, 8.36, 0.000, 0.000, 0.000, 15:29:34.079
102, 52.37, 99.37, 0.00, 8.27, 0.000, 0.000, 0.000, 15:29:34.080
103, 56.13, 98.10, 0.00, 10.50, 0.000, 0.000, 0.000, 15:29:34.092
104, 54.29, 102.18, 0.00, 9.98, 0.000, 0.000, 0.000, 15:29:34.092
105, 52.87, 102.01, 0.00, 14.00, 0.000, 0.000, 0.000, 15:29:34.106
106, 55.40, 107.90, 0.00, 7.97, 0.000, 0.000, 0.000, 15:29:34.106
107, 62.64, 116.47, 0.00, 8.14, 0.000, 0.000, 0.000, 15:29:34.106
108, 68.75, 124.84, 0.00, 4.09, 0.000, 0.000, 0.000, 15:29:34.106
109, 69.54, 128.32, 0.00, 10.39, 0.000, 0.000, 0.000, 15:29:34.120
110, 71.64, 131.08, 0.00, 10.71, 0.000, 0.000, 0.000, 15:29:34.120
111, 74.41, 134.96, 0.00, 5.06, 0.000, 0.000, 0.000, 15:29:34.135
112, 69.78, 130.74, 0.00, 7.44, 0.000, 0.000, 0.000, 15:29:34.135
113, 64.20, 119.66, 0.00, 13.73, 0.000, 0.000, 0.000, 15:29:34.135
114, 57.91, 110.10, 0.00, 5.75, 0.000, 0.000, 0.000, 15:29:34.136
115, 61.22, 108.68, 0.00, 9.90, 0.000, 0.000, 0.000, 15:29:34.151
116, 58.41, 105.26, 0.00, 7.51, 0.000, 0.000, 0.000, 15:29:34.151
117, 57.90, 96.90, 0.00, 7.86, 0.000, 0.000, 0.000, 15:29:34.166
118, 59.21, 103.03, 0.00, 8.37, 0.000, 0.000, 0.000, 15:29:34.167
119, 62.03, 115.24, 0.00, 8.34, 0.000, 0.000, 0.000, 15:29:34.167
120, 69.98, 126.91, 0.00, 9.43, 0.000, 0.000, 0.000, 15:29:34.167
121, 68.73, 129.01, 0.00, 16.86, 0.000, 0.000, 0.000, 15:29:34.182
122, 66.94, 124.38, 0.00, 10.87, 0.000, 0.000, 0.000, 15:29:34.182
123, 78.15, 133.80, 0.00, 10.18, 0.000, 0.000, 0.000, 15:29:34.196
124, 75.74, 128.11, 0.00, 10.43, 0.000, 0.000, 0.000, 15:29:34.196
125, 67.13, 120.44, 0.00, 9.27, 0.000, 0.000, 0.000, 15:29:34.197
126, 69.37, 124.95, 0.00, 12.35, 0.000, 0.000, 0.000, 15:29:34.197
127, 73.67, 128.84, 0.00, 7.42, 0.000, 0.000, 0.000, 15:29:34.218
128, 69.54, 122.81, 0.00, 7.08, 0.000, 0.000, 0.000, 15:29:34.218
129, 67.69, 118.36, 0.00, 6.39, 0.000, 0.000, 0.000, 15:29:34.225
130, 66.81, 121.12, 0.00, 8.45, 0.000, 0.000, 0.000, 15:29:34.226
131, 72.87, 123.72, 0.00, 8.45, 0.000, 0.000, 0.000, 15:29:34.226
132, 77.38, 116.80, 0.00, 10.68, 0.000, 0.000, 0.000, 15:29:34.226
133, 68.36, 115.70, 0.00, 10.00, 0.000, 0.000, 0.000, 15:29:34.241
134, 66.51, 105.71, 0.00, 8.58, 0.000, 0.000, 0.000, 15:29:34.241
135, 63.46, 93.22, 0.00, 6.22, 0.000, 0.000, 0.000, 15:29:34.256
136, 60.86, 89.33, 0.00, 10.01, 0.000, 0.000, 0.000, 15:29:34.256
137, 53.47, 84.73, 0.00, 7.65, 0.000, 0.000, 0.000, 15:29:34.256
138, 56.86, 97.42, 0.00, 6.00, 0.000, 0.000, 0.000, 15:29:34.256
139, 67.11, 109.09, 0.00, 7.24, 0.000, 0.000, 0.000, 15:29:34.271
140, 72.79, 122.64, 0.00, 10.84, 0.000, 0.000, 0.000, 15:29:34.271
141, 75.65, 121.41, 0.00, 6.97, 0.000, 0.000, 0.000, 15:29:34.286
142, 70.81, 125.95, 0.00, 11.88, 0.000, 0.000, 0.000, 15:29:34.287
143, 71.53, 123.90, 0.00, 10.25, 0.000, 0.000, 0.000, 15:29:34.287
144, 76.84, 124.90, 0.00, 10.69, 0.000, 0.000, 0.000, 15:29:34.287
145, 63.95, 114.43, 0.00, 8.97, 0.000, 0.000, 0.000, 15:29:34.302
146, 56.43, 100.35, 0.00, 10.61, 0.000, 0.000, 0.000, 15:29:34.302
147, 59.17, 92.57, 0.00, 10.76, 0.000, 0.000, 0.000, 15:29:34.315
148, 57.59, 95.92, 0.00, 6.82, 0.000, 0.000, 0.000, 15:29:34.315
149, 54.13, 91.28, 0.00, 9.64, 0.000, 0.000, 0.000, 15:29:34.316
150, 54.94, 94.79, 0.00, 7.91, 0.000, 0.000, 0.000, 15:29:34.316
151, 58.02, 96.64, 0.00, 13.30, 0.000, 0.000, 0.000, 15:29:34.331
152, 59.98, 98.94, 0.00, 7.80, 0.000, 0.000, 0.000, 15:29:34.331
153, 57.74, 94.10, 0.00, 9.88, 0.000, 0.000, 0.000, 15:29:34.347
154, 61.98, 100.96, 0.00, 13.90, 0.000, 0.000, 0.000, 15:29:34.347
155, 63.77, 107.45, 0.00, 6.85, 0.000, 0.000, 0.000, 15:29:34.347
156, 63.79, 103.19, 0.00, 9.84, 0.000, 0.000, 0.000, 15:29:34.347
157, 58.56, 99.49, 0.00, 10.03, 0.000, 0.000, 0.000, 15:29:34.361
158, 58.13, 103.45, 0.00, 8.51, 0.000, 0.000, 0.000, 15:29:34.361
159, 65.58, 113.98, 0.00, 8.59, 0.000, 0.000, 0.000, 15:29:34.376
160, 70.62, 131.58, 0.00, 7.09, 0.000, 0.000, 0.000, 15:29:34.376
161, 69.23, 133.82, 0.00, 10.88, 0.000, 0.000, 0.000, 15:29:34.376
162, 76.11, 132.58, 0.00, 9.54, 0.000, 0.000, 0.000, 15:29:34.376
163, 79.89, 130.08, 0.00, 6.44, 0.000, 0.000, 0.000, 15:29:34.391
164, 72.21, 123.36, 0.00, 7.32, 0.000, 0.000, 0.000, 15:29:34.391
165, 72.79, 122.44, 0.00, 9.45, 0.000, 0.000, 0.000, 15:29:34.407
166, 72.12, 126.88, 0.00, 9.08, 0.000, 0.000, 0.000, 15:29:34.407
167, 74.03, 125.41, 0.00, 9.21, 0.000, 0.000, 0.000, 15:29:34.408
168, 72.53, 122.99, 0.00, 9.39, 0.000, 0.000, 0.000, 15:29:34.408
169, 66.90, 118.02, 0.00, 7.37, 0.000, 0.000, 0.000, 15:29:34.421
170, 67.79, 114.76, 0.00, 9.36, 0.000, 0.000, 0.000, 15:29:34.421
171, 70.49, 124.50, 0.00, 9.67, 0.000, 0.000, 0.000, 15:29:34.436
172, 72.44, 123.40, 0.00, 7.89, 0.000, 0.000, 0.000, 15:29:34.436
173, 60.00, 111.41, 0.00, 11.06, 0.000, 0.000, 0.000, 15:29:34.437
174, 55.44, 92.93, 0.00, 11.99, 0.000, 0.000, 0.000, 15:29:34.437
175, 55.70, 93.96, 0.00, 11.09, 0.000, 0.000, 0.000, 15:29:34.451
176, 56.52, 89.19, 0.00, 8.49, 0.000, 0.000, 0.000, 15:29:34.451
177, 54.05, 86.43, 0.00, 11.57, 0.000, 0.000, 0.000, 15:29:34.466
178, 57.07, 94.68, 0.00, 8.65, 0.000, 0.000, 0.000, 15:29:34.466
179, 64.04, 105.28, 0.00, 6.97, 0.000, 0.000, 0.000, 15:29:34.466
180, 68.80, 113.04, 0.00, 7.67, 0.000, 0.000, 0.000, 15:29:34.466
181, 68.88, 124.51, 0.00, 10.64, 0.000, 0.000, 0.000, 15:29:34.481
182, 74.29, 127.55, 0.00, 10.57, 0.000, 0.000, 0.000, 15:29:34.481
183, 81.08, 131.42, 0.00, 12.43, 0.000, 0.000, 0.000, 15:29:34.496
184, 78.31, 126.55, 0.00, 10.48, 0.000, 0.000, 0.000, 15:29:34.496
185, 73.57, 120.01, 0.00, 7.39, 0.000, 0.000, 0.000, 15:29:34.496
186, 76.15, 123.07, 0.00, 9.49, 0.000, 0.000, 0.000, 15:29:34.496
187, 78.83, 125.14, 0.00, 5.92, 0.000, 0.000, 0.000, 15:29:34.510
188, 80.31, 117.62, 0.00, 10.66, 0.000, 0.000, 0.000, 15:29:34.510
189, 72.98, 119.34, 0.00, 6.00, 0.000, 0.000, 0.000, 15:29:34.525
190, 71.07, 120.96, 0.00, 7.05, 0.000, 0.000, 0.000, 15:29:34.525
191, 73.26, 120.82, 0.00, 6.75, 0.000, 0.000, 0.000, 15:29:34.526
192, 75.01, 116.37, 0.00, 7.64, 0.000, 0.000, 0.000, 15:29:34.526
193, 64.81, 102.51, 0.00, 4.78, 0.000, 0.000, 0.000, 15:29:34.541
194, 60.65, 85.03, 0.00, 4.07, 0.000, 0.000, 0.000, 15:29:34.541
195, 64.67, 90.96, 0.00, 11.96, 0.000, 0.000, 0.000, 15:29:34.556
196, 67.13, 94.65, 0.00, 9.88, 0.000, 0.000, 0.000, 15:29:34.557
197, 57.68, 84.69, 0.00, 8.31, 0.000, 0.000, 0.000, 15:29:34.564
198, 61.75, 91.25, 0.00, 7.93, 0.000, 0.000, 0.000, 15:29:34.564
199, 64.78, 97.74, 0.00, 6.73, 0.000, 0.000, 0.000, 15:29:34.572
200, 67.14, 99.11, 0.00, 9.04, 0.000, 0.000, 0.000, 15:29:34.572
0, 63.24, 105.47, 0.00, 5.84, 0.000, 0.000, 0.000, 15:29:34.572
1, 69.88, 117.47, 0.00, 9.00, 0.000, 0.000, 0.000, 15:29:34.586
2, 77.39, 129.98, 0.00, 6.07, 0.000, 0.000, 0.000, 15:29:34.586
3, 73.08, 129.28, 0.00, 9.18, 0.000, 0.000, 0.000, 15:29:34.603
4, 68.63, 123.82, 0.00, 7.26, 0.000, 0.000, 0.000, 15:29:34.603
5, 66.55, 127.02, 0.00, 8.54, 0.000, 0.000, 0.000, 15:29:34.603
6, 73.96, 129.49, 0.00, 12.16, 0.000, 0.000, 0.000, 15:29:34.603
7, 72.06, 125.46, 0.00, 8.12, 0.000, 0.000, 0.000, 15:29:34.616
8, 67.73, 115.42, 0.00, 6.37, 0.000, 0.000, 0.000, 15:29:34.616
9, 69.49, 123.78, 0.00, 9.65, 0.000, 0.000, 0.000, 15:29:34.631
10, 70.03, 122.07, 0.00, 8.98, 0.000, 0.000, 0.000, 15:29:34.631
11, 63.78, 110.77, 0.00, 6.75, 0.000, 0.000, 0.000, 15:29:34.631
12, 57.95, 88.04, 0.00, 11.76, 0.000, 0.000, 0.000, 15:29:34.631
13, 58.59, 90.11, 0.00, 7.06, 0.000, 0.000, 0.000, 15:29:34.646
14, 57.30, 91.91, 0.00, 5.82, 0.000, 0.000, 0.000, 15:29:34.646
15, 59.91, 97.18, 0.00, 3.42, 0.000, 0.000, 0.000, 15:29:34.660
16, 53.88, 97.70, 0.00, 9.30, 0.000, 0.000, 0.000, 15:29:34.660
17, 55.58, 92.87, 0.00, 6.62, 0.000, 0.000, 0.000, 15:29:34.660
18, 59.78, 106.35, 0.00, 4.53, 0.000, 0.000, 0.000, 15:29:34.661
19, 61.29, 105.81, 0.00, 5.84, 0.000, 0.000, 0.000, 15:29:34.675
20, 63.67, 104.16, 0.00, 5.94, 0.000, 0.000, 0.000, 15:29:34.675
21, 62.90, 112.33, 0.00, 7.62, 0.000, 0.000, 0.000, 15:29:34.691
22, 63.61, 116.67, 0.00, 8.61, 0.000, 0.000, 0.000, 15:29:34.691
23, 68.33, 124.96, 0.00, 6.79, 0.000, 0.000, 0.000, 15:29:34.691
24, 69.91, 129.72, 0.00, 7.79, 0.000, 0.000, 0.000, 15:29:34.692
25, 69.45, 133.36, 0.00, 9.56, 0.000, 0.000, 0.000, 15:29:34.706
26, 73.62, 133.37, 0.00, 6.92, 0.000, 0.000, 0.000, 15:29:34.706
27, 72.51, 129.46, 0.00, 9.44, 0.000, 0.000, 0.000, 15:29:34.722
28, 68.18, 121.48, 0.00, 8.94, 0.000, 0.000, 0.000, 15:29:34.722
29, 65.39, 121.04, 0.00, 9.57, 0.000, 0.000, 0.000, 15:29:34.722
30, 69.85, 121.54, 0.00, 9.37, 0.000, 0.000, 0.000, 15:29:34.723
31, 69.72, 117.77, 0.00, 8.49, 0.000, 0.000, 0.000, 15:29:34.737
32, 61.02, 100.50, 0.00, 11.84, 0.000, 0.000, 0.000, 15:29:34.737
33, 58.73, 86.79, 0.00, 7.78, 0.000, 0.000, 0.000, 15:29:34.751
34, 58.97, 89.23, 0.00, 4.09, 0.000, 0.000, 0.000, 15:29:34.751
35, 61.22, 85.85, 0.00, 12.54, 0.000, 0.000, 0.000, 15:29:34.751
36, 57.30, 93.87, 0.00, 11.50, 0.000, 0.000, 0.000, 15:29:34.751
37, 56.73, 100.95, 0.00, 5.52, 0.000, 0.000, 0.000, 15:29:34.766
38, 60.75, 108.05, 0.00, 11.32, 0.000, 0.000, 0.000, 15:29:34.766
39, 63.60, 115.84, 0.00, 11.15, 0.000, 0.000, 0.000, 15:29:34.781
40, 65.13, 127.88, 0.00, 11.51, 0.000, 0.000, 0.000, 15:29:34.781
41, 71.94, 133.45, 0.00, 13.17, 0.000, 0.000, 0.000, 15:29:34.782
42, 74.38, 139.10, 0.00, 11.74, 0.000, 0.000, 0.000, 15:29:34.782
43, 72.33, 130.69, 0.00, 9.11, 0.000, 0.000, 0.000, 15:29:34.797
44, 69.18, 125.25, 0.00, 9.32, 0.000, 0.000, 0.000, 15:29:34.797
45, 72.20, 131.75, 0.00, 7.64, 0.000, 0.000, 0.000, 15:29:34.812
46, 75.94, 138.55, 0.00, 10.78, 0.000, 0.000, 0.000, 15:29:34.812
47, 72.75, 123.98, 0.00, 9.30, 0.000, 0.000, 0.000, 15:29:34.812
48, 69.05, 122.84, 0.00, 10.33, 0.000, 0.000, 0.000, 15:29:34.812
49, 68.69, 127.93, 0.00, 10.06, 0.000, 0.000, 0.000, 15:29:34.832
50, 70.26, 124.28, 0.00, 5.08, 0.000, 0.000, 0.000, 15:29:34.833
51, 70.59, 119.41, 0.00, 5.26, 0.000, 0.000, 0.000, 15:29:34.842
52, 65.41, 116.08, 0.00, 9.39, 0.000, 0.000, 0.000, 15:29:34.842
53, 67.01, 117.25, 0.00, 4.53, 0.000, 0.000, 0.000, 15:29:34.842
54, 70.28, 123.11, 0.00, 9.89, 0.000, 0.000, 0.000, 15:29:34.842
55, 70.58, 121.25, 0.00, 7.20, 0.000, 0.000, 0.000, 15:29:34.856
56, 64.13, 104.02, 0.00, 8.68, 0.000, 0.000, 0.000, 15:29:34.856
57, 57.37, 85.36, 0.00, 10.92, 0.000, 0.000, 0.000, 15:29:34.872
58, 61.18, 84.58, 0.00, 9.24, 0.000, 0.000, 0.000, 15:29:34.872
59, 54.57, 80.12, 0.00, 0.96, 0.000, 0.000, 0.000, 15:29:34.872
60, 54.70, 85.05, 0.00, 6.54, 0.000, 0.000, 0.000, 15:29:34.872
61, 55.45, 92.53, 0.00, 9.06, 0.000, 0.000, 0.000, 15:29:34.886
62, 61.38, 97.89, 0.00, 7.46, 0.000, 0.000, 0.000, 15:29:34.886
63, 66.75, 109.68, 0.00, 8.43, 0.000, 0.000, 0.000, 15:29:34.900
64, 63.02, 112.27, 0.00, 9.25, 0.000, 0.000, 0.000, 15:29:34.900
65, 70.15, 113.27, 0.00, 7.12, 0.000, 0.000, 0.000, 15:29:34.901
66, 72.75, 122.03, 0.00, 10.66, 0.000, 0.000, 0.000, 15:29:34.901
67, 77.14, 120.30, 0.00, 7.73, 0.000, 0.000, 0.000, 15:29:34.916
68, 73.29, 112.07, 0.00, 8.58, 0.000, 0.000, 0.000, 15:29:34.916
69, 71.69, 104.68, 0.00, 9.48, 0.000, 0.000, 0.000, 15:29:34.931
70, 76.17, 107.90, 0.00, 10.30, 0.000, 0.000, 0.000, 15:29:34.931
71, 70.85, 102.16, 0.00, 9.07, 0.000, 0.000, 0.000, 15:29:34.931
72, 67.86, 103.26, 0.00, 5.29, 0.000, 0.000, 0.000, 15:29:34.931
73, 67.17, 109.76, 0.00, 13.19, 0.000, 0.000, 0.000, 15:29:34.946
74, 67.32, 110.55, 0.00, 11.25, 0.000, 0.000, 0.000, 15:29:34.946
75, 64.48, 100.45, 0.00, 9.50, 0.000, 0.000, 0.000, 15:29:34.961
76, 57.42, 82.18, 0.00, 10.67, 0.000, 0.000, 0.000, 15:29:34.961
77, 53.98, 79.93, 0.00, 6.08, 0.000, 0.000, 0.000, 15:29:34.961
78, 58.60, 88.77, 0.00, 11.93, 0.000, 0.000, 0.000, 15:29:34.961
79, 57.84, 86.91, 0.00, 12.05, 0.000, 0.000, 0.000, 15:29:34.977
80, 55.16, 85.23, 0.00, 5.81, 0.000, 0.000, 0.000, 15:29:34.977
81, 55.38, 93.24, 0.00, 8.08, 0.000, 0.000, 0.000, 15:29:34.991
82, 54.36, 106.31, 0.00, 12.44, 0.000, 0.000, 0.000, 15:29:34.991
83, 53.53, 96.74, 0.00, 4.64, 0.000, 0.000, 0.000, 15:29:34.992
84, 52.77, 103.19, 0.00, 8.48, 0.000, 0.000, 0.000, 15:29:34.992
85, 56.27, 110.17, 0.00, 11.15, 0.000, 0.000, 0.000, 15:29:35.007
86, 61.40, 110.37, 0.00, 7.28, 0.000, 0.000, 0.000, 15:29:35.007
87, 59.68, 105.73, 0.00, 7.36, 0.000, 0.000, 0.000, 15:29:35.021
88, 53.33, 101.94, 0.00, 10.13, 0.000, 0.000, 0.000, 15:29:35.021
89, 54.86, 106.84, 0.00, 10.76, 0.000, 0.000, 0.000, 15:29:35.022
90, 61.47, 112.97, 0.00, 6.90, 0.000, 0.000, 0.000, 15:29:35.022
91, 64.96, 118.76, 0.00, 5.14, 0.000, 0.000, 0.000, 15:29:35.036
92, 61.39, 112.75, 0.00, 4.08, 0.000, 0.000, 0.000, 15:29:35.036
93, 53.84, 100.92, 0.00, 7.35, 0.000, 0.000, 0.000, 15:29:35.051
94, 60.18, 100.91, 0.00, 10.69, 0.000, 0.000, 0.000, 15:29:35.051
95, 58.21, 98.76, 0.00, 10.43, 0.000, 0.000, 0.000, 15:29:35.051
96, 54.09, 96.06, 0.00, 10.84, 0.000, 0.000, 0.000, 15:29:35.051
97, 57.07, 107.58, 0.00, 8.97, 0.000, 0.000, 0.000, 15:29:35.065
98, 67.62, 116.34, 0.00, 10.07, 0.000, 0.000, 0.000, 15:29:35.066
99, 75.21, 132.03, 0.00, 7.43, 0.000, 0.000, 0.000, 15:29:35.081
100, 72.46, 129.35, 0.00, 10.87, 0.000, 0.000, 0.000, 15:29:35.081
101, 71.72, 129.11, 0.00, 6.43, 0.000, 0.000, 0.000, 15:29:35.081
102, 75.31, 130.25, 0.00, 9.02, 0.000, 0.000, 0.000, 15:29:35.081
103, 73.76, 126.31, 0.00, 11.17, 0.000, 0.000, 0.000, 15:29:35.095
104, 70.62, 124.97, 0.00, 7.38, 0.000, 0.000, 0.000, 15:29:35.095
105, 69.64, 127.24, 0.00, 5.93, 0.000, 0.000, 0.000, 15:29:35.111
106, 71.76, 129.16, 0.00, 10.64, 0.000, 0.000, 0.000, 15:29:35.111
107, 69.50, 123.88, 0.00, 11.55, 0.000, 0.000, 0.000, 15:29:35.111
108, 67.40, 120.13, 0.00, 8.45, 0.000, 0.000, 0.000, 15:29:35.111
109, 68.93, 123.40, 0.00, 6.18, 0.000, 0.000, 0.000, 15:29:35.125
110, 74.73, 119.81, 0.00, 8.14, 0.000, 0.000, 0.000, 15:29:35.126
111, 72.11, 120.05, 0.00, 13.14, 0.000, 0.000, 0.000, 15:29:35.141
112, 66.29, 121.51, 0.00, 10.49, 0.000, 0.000, 0.000, 15:29:35.141
113, 69.29, 125.89, 0.00, 10.48, 0.000, 0.000, 0.000, 15:29:35.141
114, 72.95, 129.77, 0.00, 6.83, 0.000, 0.000, 0.000, 15:29:35.141
115, 73.07, 122.90, 0.00, 10.92, 0.000, 0.000, 0.000, 15:29:35.156
116, 66.83, 110.28, 0.00, 9.27, 0.000, 0.000, 0.000, 15:29:35.156
117, 58.74, 91.78, 0.00, 7.77, 0.000, 0.000, 0.000, 15:29:35.171
118, 61.78, 90.29, 0.00, 10.06, 0.000, 0.000, 0.000, 15:29:35.171
119, 60.90, 87.56, 0.00, 11.80, 0.000, 0.000, 0.000, 15:29:35.171
120, 58.77, 89.24, 0.00, 7.88, 0.000, 0.000, 0.000, 15:29:35.171
121, 63.49, 98.27, 0.00, 10.76, 0.000, 0.000, 0.000, 15:29:35.187
122, 64.93, 103.50, 0.00, 8.48, 0.000, 0.000, 0.000, 15:29:35.187
123, 63.10, 104.58, 0.00, 9.25, 0.000, 0.000, 0.000, 15:29:35.201
124, 64.34, 100.87, 0.00, 12.14, 0.000, 0.000, 0.000, 15:29:35.201
125, 69.05, 110.43, 0.00, 7.60, 0.000, 0.000, 0.000, 15:29:35.202
126, 74.18, 128.75, 0.00, 9.10, 0.000, 0.000, 0.000, 15:29:35.202
127, 74.42, 125.27, 0.00, 13.14, 0.000, 0.000, 0.000, 15:29:35.216
128, 73.77, 124.46, 0.00, 6.63, 0.000, 0.000, 0.000, 15:29:35.216
129, 71.94, 126.42, 0.00, 12.47, 0.000, 0.000, 0.000, 15:29:35.231
130, 70.63, 122.95, 0.00, 13.18, 0.000, 0.000, 0.000, 15:29:35.231
131, 70.67, 117.25, 0.00, 7.24, 0.000, 0.000, 0.000, 15:29:35.232
132, 70.56, 117.28, 0.00, 8.10, 0.000, 0.000, 0.000, 15:29:35.232
133, 73.76, 121.43, 0.00, 11.32, 0.000, 0.000, 0.000, 15:29:35.246
134, 73.79, 117.00, 0.00, 6.26, 0.000, 0.000, 0.000, 15:29:35.247
135, 73.45, 111.40, 0.00, 7.12, 0.000, 0.000, 0.000, 15:29:35.261
136, 64.47, 95.55, 0.00, 10.51, 0.000, 0.000, 0.000, 15:29:35.261
137, 58.96, 83.42, 0.00, 10.11, 0.000, 0.000, 0.000, 15:29:35.261
138, 61.55, 86.61, 0.00, 8.27, 0.000, 0.000, 0.000, 15:29:35.261
139, 60.65, 89.25, 0.00, 4.51, 0.000, 0.000, 0.000, 15:29:35.276
140, 57.19, 84.64, 0.00, 7.85, 0.000, 0.000, 0.000, 15:29:35.276
141, 62.03, 90.56, 0.00, 9.03, 0.000, 0.000, 0.000, 15:29:35.291
142, 72.88, 107.98, 0.00, 6.48, 0.000, 0.000, 0.000, 15:29:35.292
143, 73.51, 107.76, 0.00, 9.25, 0.000, 0.000, 0.000, 15:29:35.292
144, 71.09, 114.02, 0.00, 12.83, 0.000, 0.000, 0.000, 15:29:35.293
145, 74.86, 124.11, 0.00, 7.28, 0.000, 0.000, 0.000, 15:29:35.306
146, 81.34, 123.50, 0.00, 9.23, 0.000, 0.000, 0.000, 15:29:35.307
147, 80.85, 118.39, 0.00, 8.25, 0.000, 0.000, 0.000, 15:29:35.321
148, 72.31, 106.43, 0.00, 6.62, 0.000, 0.000, 0.000, 15:29:35.321
149, 70.33, 101.85, 0.00, 8.42, 0.000, 0.000, 0.000, 15:29:35.321
150, 73.52, 111.25, 0.00, 3.81, 0.000, 0.000, 0.000, 15:29:35.322
151, 73.15, 112.31, 0.00, 10.26, 0.000, 0.000, 0.000, 15:29:35.336
152, 67.51, 98.92, 0.00, 8.31, 0.000, 0.000, 0.000, 15:29:35.336
153, 65.70, 108.21, 0.00, 4.98, 0.000, 0.000, 0.000, 15:29:35.351
154, 69.47, 113.99, 0.00, 7.93, 0.000, 0.000, 0.000, 15:29:35.351
155, 72.82, 120.61, 0.00, 8.24, 0.000, 0.000, 0.000, 15:29:35.352
156, 70.59, 121.65, 0.00, 8.39, 0.000, 0.000, 0.000, 15:29:35.352
157, 71.12, 125.88, 0.00, 9.82, 0.000, 0.000, 0.000, 15:29:35.366
158, 73.68, 124.80, 0.00, 11.04, 0.000, 0.000, 0.000, 15:29:35.366
159, 70.27, 119.99, 0.00, 9.16, 0.000, 0.000, 0.000, 15:29:35.381
160, 64.68, 104.86, 0.00, 3.68, 0.000, 0.000, 0.000, 15:29:35.381
161, 62.22, 85.62, 0.00, 12.51, 0.000, 0.000, 0.000, 15:29:35.382
162, 59.93, 90.40, 0.00, 11.44, 0.000, 0.000, 0.000, 15:29:35.382
163, 63.39, 84.36, 0.00, 9.91, 0.000, 0.000, 0.000, 15:29:35.396
164, 59.84, 82.43, 0.00, 7.61, 0.000, 0.000, 0.000, 15:29:35.396
165, 62.98, 87.06, 0.00, 12.16, 0.000, 0.000, 0.000, 15:29:35.411
166, 65.00, 101.78, 0.00, 12.79, 0.000, 0.000, 0.000, 15:29:35.412
167, 68.25, 110.36, 0.00, 6.38, 0.000, 0.000, 0.000, 15:29:35.412
168, 65.76, 113.37, 0.00, 9.49, 0.000, 0.000, 0.000, 15:29:35.412
169, 67.37, 108.58, 0.00, 7.81, 0.000, 0.000, 0.000, 15:29:35.426
170, 74.64, 119.14, 0.00, 11.40, 0.000, 0.000, 0.000, 15:29:35.426
171, 77.20, 120.59, 0.00, 7.72, 0.000, 0.000, 0.000, 15:29:35.445
172, 70.36, 120.59, 0.00, 8.32, 0.000, 0.000, 0.000, 15:29:35.445
173, 72.66, 123.23, 0.00, 5.97, 0.000, 0.000, 0.000, 15:29:35.446
174, 75.67, 124.92, 0.00, 8.76, 0.000, 0.000, 0.000, 15:29:35.446
175, 72.50, 122.23, 0.00, 9.93, 0.000, 0.000, 0.000, 15:29:35.457
176, 72.60, 119.04, 0.00, 10.88, 0.000, 0.000, 0.000, 15:29:35.457
177, 71.23, 121.18, 0.00, 7.20, 0.000, 0.000, 0.000, 15:29:35.471
178, 74.05, 121.26, 0.00, 12.31, 0.000, 0.000, 0.000, 15:29:35.471
179, 74.43, 109.40, 0.00, 8.81, 0.000, 0.000, 0.000, 15:29:35.471
180, 68.56, 97.03, 0.00, 9.58, 0.000, 0.000, 0.000, 15:29:35.472
181, 62.90, 87.75, 0.00, 9.34, 0.000, 0.000, 0.000, 15:29:35.493
182, 61.69, 91.55, 0.00, 9.02, 0.000, 0.000, 0.000, 15:29:35.493
183, 60.66, 92.42, 0.00, 9.43, 0.000, 0.000, 0.000, 15:29:35.501
184, 57.78, 91.68, 0.00, 14.85, 0.000, 0.000, 0.000, 15:29:35.501
185, 62.63, 97.65, 0.00, 8.90, 0.000, 0.000, 0.000, 15:29:35.502
186, 69.86, 118.63, 0.00, 6.55, 0.000, 0.000, 0.000, 15:29:35.502
187, 69.96, 127.58, 0.00, 11.54, 0.000, 0.000, 0.000, 15:29:35.516
188, 70.12, 126.55, 0.00, 11.10, 0.000, 0.000, 0.000, 15:29:35.516
189, 70.34, 131.75, 0.00, 5.38, 0.000, 0.000, 0.000, 15:29:35.531
190, 75.88, 131.50, 0.00, 8.35, 0.000, 0.000, 0.000, 15:29:35.531
191, 70.26, 125.50, 0.00, 5.49, 0.000, 0.000, 0.000, 15:29:35.531
192, 64.80, 115.80, 0.00, 9.16, 0.000, 0.000, 0.000, 15:29:35.532
193, 55.71, 99.83, 0.00, 8.82, 0.000, 0.000, 0.000, 15:29:35.546
194, 54.18, 96.28, 0.00, 9.69, 0.000, 0.000, 0.000, 15:29:35.546
195, 52.17, 88.90, 0.00, 8.64, 0.000, 0.000, 0.000, 15:29:35.561
196, 48.15, 87.49, 0.00, 6.97, 0.000, 0.000, 0.000, 15:29:35.561
197, 53.56, 91.32, 0.00, 6.93, 0.000, 0.000, 0.000, 15:29:35.561
198, 57.52, 105.27, 0.00, 7.98, 0.000, 0.000, 0.000, 15:29:35.562
199, 57.86, 104.03, 0.00, 3.88, 0.000, 0.000, 0.000, 15:29:35.576
200, 54.45, 102.39, 0.00, 8.40, 0.000, 0.000, 0.000, 15:29:35.576
0, 52.39, 108.49, 0.00, 6.96, 0.000, 0.000, 0.000, 15:29:35.576
1, 62.93, 116.17, 0.00, 7.80, 0.000, 0.000, 0.000, 15:29:35.590
2, 68.20, 132.38, 0.00, 8.54, 0.000, 0.000, 0.000, 15:29:35.591
3, 71.45, 132.57, 0.00, 11.18, 0.000, 0.000, 0.000, 15:29:35.608
4, 76.65, 135.94, 0.00, 8.28, 0.000, 0.000, 0.000, 15:29:35.608
5, 79.22, 133.97, 0.00, 5.92, 0.000, 0.000, 0.000, 15:29:35.609
6, 77.31, 128.72, 0.00, 7.85, 0.000, 0.000, 0.000, 15:29:35.609
7, 72.51, 130.75, 0.00, 10.84, 0.000, 0.000, 0.000, 15:29:35.621
8, 70.82, 128.32, 0.00, 10.26, 0.000, 0.000, 0.000, 15:29:35.621
9, 75.99, 132.33, 0.00, 6.72, 0.000, 0.000, 0.000, 15:29:35.636
10, 75.22, 129.14, 0.00, 9.20, 0.000, 0.000, 0.000, 15:29:35.636
11, 72.08, 118.41, 0.00, 11.26, 0.000, 0.000, 0.000, 15:29:35.637
12, 72.55, 125.34, 0.00, 6.42, 0.000, 0.000, 0.000, 15:29:35.637
13, 75.95, 129.06, 0.00, 10.96, 0.000, 0.000, 0.000, 15:29:35.652
14, 68.59, 117.85, 0.00, 10.74, 0.000, 0.000, 0.000, 15:29:35.652
15, 62.43, 106.55, 0.00, 8.53, 0.000, 0.000, 0.000, 15:29:35.666
16, 63.50, 99.18, 0.00, 11.30, 0.000, 0.000, 0.000, 15:29:35.666
17, 64.46, 105.56, 0.00, 5.74, 0.000, 0.000, 0.000, 15:29:35.666
18, 68.15, 108.93, 0.00, 8.12, 0.000, 0.000, 0.000, 15:29:35.666
19, 65.61, 113.37, 0.00, 14.28, 0.000, 0.000, 0.000, 15:29:35.681
20, 70.57, 115.68, 0.00, 11.34, 0.000, 0.000, 0.000, 15:29:35.681
21, 77.45, 130.36, 0.00, 8.71, 0.000, 0.000, 0.000, 15:29:35.696
22, 75.87, 128.28, 0.00, 9.61, 0.000, 0.000, 0.000, 15:29:35.696
23, 74.20, 129.28, 0.00, 7.75, 0.000, 0.000, 0.000, 15:29:35.696
24, 73.65, 131.47, 0.00, 7.25, 0.000, 0.000, 0.000, 15:29:35.697
25, 75.77, 134.42, 0.00, 9.16, 0.000, 0.000, 0.000, 15:29:35.713
26, 76.26, 128.84, 0.00, 7.51, 0.000, 0.000, 0.000, 15:29:35.713
27, 68.28, 124.42, 0.00, 5.03, 0.000, 0.000, 0.000, 15:29:35.726
28, 68.94, 127.19, 0.00, 10.35, 0.000, 0.000, 0.000, 15:29:35.726
29, 74.16, 127.21, 0.00, 6.29, 0.000, 0.000, 0.000, 15:29:35.726
30, 74.39, 125.73, 0.00, 15.39, 0.000, 0.000, 0.000, 15:29:35.726
31, 71.58, 122.68, 0.00, 9.57, 0.000, 0.000, 0.000, 15:29:35.743
32, 67.26, 125.92, 0.00, 1.22, 0.000, 0.000, 0.000, 15:29:35.743
33, 67.90, 130.62, 0.00, 8.26, 0.000, 0.000, 0.000, 15:29:35.756
34, 67.53, 123.23, 0.00, 9.83, 0.000, 0.000, 0.000, 15:29:35.756
35, 59.57, 106.84, 0.00, 8.28, 0.000, 0.000, 0.000, 15:29:35.761
36, 51.64, 95.33, 0.00, 11.58, 0.000, 0.000, 0.000, 15:29:35.761
37, 57.00, 100.26, 0.00, 9.96, 0.000, 0.000, 0.000, 15:29:35.773
38, 56.78, 96.39, 0.00, 6.70, 0.000, 0.000, 0.000, 15:29:35.773
39, 58.74, 92.70, 0.00, 6.56, 0.000, 0.000, 0.000, 15:29:35.785
40, 61.31, 99.04, 0.00, 8.27, 0.000, 0.000, 0.000, 15:29:35.786
41, 62.83, 108.87, 0.00, 9.18, 0.000, 0.000, 0.000, 15:29:35.786
42, 62.19, 104.44, 0.00, 12.48, 0.000, 0.000, 0.000, 15:29:35.786
43, 59.83, 105.09, 0.00, 9.93, 0.000, 0.000, 0.000, 15:29:35.807
44, 58.50, 112.49, 0.00, 9.92, 0.000, 0.000, 0.000, 15:29:35.807
45, 64.57, 132.59, 0.00, 10.77, 0.000, 0.000, 0.000, 15:29:35.816
46, 68.98, 139.78, 0.00, 8.79, 0.000, 0.000, 0.000, 15:29:35.816
47, 65.01, 128.67, 0.00, 5.18, 0.000, 0.000, 0.000, 15:29:35.817
48, 64.71, 132.93, 0.00, 6.93, 0.000, 0.000, 0.000, 15:29:35.817
49, 70.82, 141.81, 0.00, 10.48, 0.000, 0.000, 0.000, 15:29:35.831
50, 69.77, 138.71, 0.00, 9.47, 0.000, 0.000, 0.000, 15:29:35.832
51, 65.92, 133.13, 0.00, 10.09, 0.000, 0.000, 0.000, 15:29:35.846
52, 69.35, 127.52, 0.00, 9.26, 0.000, 0.000, 0.000, 15:29:35.846
53, 68.06, 132.58, 0.00, 10.09, 0.000, 0.000, 0.000, 15:29:35.846
54, 69.85, 129.55, 0.00, 10.51, 0.000, 0.000, 0.000, 15:29:35.846
55, 66.65, 127.39, 0.00, 6.05, 0.000, 0.000, 0.000, 15:29:35.861
56, 63.44, 127.01, 0.00, 5.96, 0.000, 0.000, 0.000, 15:29:35.861
57, 65.09, 125.11, 0.00, 8.89, 0.000, 0.000, 0.000, 15:29:35.876
58, 59.26, 120.68, 0.00, 7.27, 0.000, 0.000, 0.000, 15:29:35.876
59, 51.12, 108.61, 0.00, 5.92, 0.000, 0.000, 0.000, 15:29:35.877
60, 50.89, 106.92, 0.00, 10.12, 0.000, 0.000, 0.000, 15:29:35.877
61, 52.62, 107.38, 0.00, 12.15, 0.000, 0.000, 0.000, 15:29:35.891
62, 55.48, 114.02, 0.00, 8.49, 0.000, 0.000, 0.000, 15:29:35.891
63, 55.21, 115.72, 0.00, 11.02, 0.000, 0.000, 0.000, 15:29:35.906
64, 60.43, 122.04, 0.00, 4.01, 0.000, 0.000, 0.000, 15:29:35.906
65, 63.39, 123.57, 0.00, 9.41, 0.000, 0.000, 0.000, 15:29:35.907
66, 64.59, 125.52, 0.00, 8.54, 0.000, 0.000, 0.000, 15:29:35.907
67, 58.63, 121.66, 0.00, 3.68, 0.000, 0.000, 0.000, 15:29:35.921
68, 58.68, 119.30, 0.00, 9.13, 0.000, 0.000, 0.000, 15:29:35.921
69, 66.10, 128.16, 0.00, 4.92, 0.000, 0.000, 0.000, 15:29:35.936
70, 71.06, 134.43, 0.00, 8.99, 0.000, 0.000, 0.000, 15:29:35.936
71, 66.76, 126.58, 0.00, 6.75, 0.000, 0.000, 0.000, 15:29:35.936
72, 67.87, 126.54, 0.00, 9.85, 0.000, 0.000, 0.000, 15:29:35.936
73, 68.37, 133.65, 0.00, 12.26, 0.000, 0.000, 0.000, 15:29:35.951
74, 69.56, 128.56, 0.00, 9.99, 0.000, 0.000, 0.000, 15:29:35.952
75, 68.92, 126.98, 0.00, 7.27, 0.000, 0.000, 0.000, 15:29:35.966
76, 72.12, 127.87, 0.00, 16.12, 0.000, 0.000, 0.000, 15:29:35.966
77, 81.15, 125.67, 0.00, 6.72, 0.000, 0.000, 0.000, 15:29:35.966
78, 74.06, 117.71, 0.00, 7.54, 0.000, 0.000, 0.000, 15:29:35.966
79, 71.60, 118.93, 0.00, 3.86, 0.000, 0.000, 0.000, 15:29:35.981
80, 70.92, 113.71, 0.00, 9.42, 0.000, 0.000, 0.000, 15:29:35.982
81, 68.74, 109.67, 0.00, 5.50, 0.000, 0.000, 0.000, 15:29:35.997
82, 63.82, 98.26, 0.00, 5.80, 0.000, 0.000, 0.000, 15:29:35.997
83, 56.91, 86.22, 0.00, 8.94, 0.000, 0.000, 0.000, 15:29:35.998
84, 57.13, 93.25, 0.00, 8.97, 0.000, 0.000, 0.000, 15:29:35.998
85, 61.57, 103.26, 0.00, 10.22, 0.000, 0.000, 0.000, 15:29:36.012
86, 60.23, 100.90, 0.00, 7.11, 0.000, 0.000, 0.000, 15:29:36.012
87, 58.22, 97.64, 0.00, 9.17, 0.000, 0.000, 0.000, 15:29:36.027
88, 61.40, 102.92, 0.00, 8.24, 0.000, 0.000, 0.000, 15:29:36.027
89, 63.23, 104.49, 0.00, 12.36, 0.000, 0.000, 0.000, 15:29:36.027
90, 71.30, 122.74, 0.00, 14.23, 0.000, 0.000, 0.000, 15:29:36.028
91, 74.85, 127.95, 0.00, 8.69, 0.000, 0.000, 0.000, 15:29:36.041
92, 75.29, 131.38, 0.00, 9.37, 0.000, 0.000, 0.000, 15:29:36.042
93, 77.90, 134.24, 0.00, 6.58, 0.000, 0.000, 0.000, 15:29:36.057
94, 72.98, 127.65, 0.00, 11.84, 0.000, 0.000, 0.000, 15:29:36.057
95, 73.38, 126.52, 0.00, 11.72, 0.000, 0.000, 0.000, 15:29:36.064
96, 75.40, 129.28, 0.00, 7.39, 0.000, 0.000, 0.000, 15:29:36.064
97, 75.19, 127.31, 0.00, 9.40, 0.000, 0.000, 0.000, 15:29:36.071
98, 75.15, 125.11, 0.00, 5.57, 0.000, 0.000, 0.000, 15:29:36.071
99, 69.75, 120.21, 0.00, 10.97, 0.000, 0.000, 0.000, 15:29:36.086
100, 73.07, 124.38, 0.00, 5.28, 0.000, 0.000, 0.000, 15:29:36.086
101, 76.21, 124.81, 0.00, 3.80, 0.000, 0.000, 0.000, 15:29:36.086
102, 75.40, 122.87, 0.00, 6.54, 0.000, 0.000, 0.000, 15:29:36.086
103, 69.80, 123.41, 0.00, 8.44, 0.000, 0.000, 0.000, 15:29:36.101
104, 68.92, 121.93, 0.00, 3.81, 0.000, 0.000, 0.000, 15:29:36.101
105, 70.84, 122.50, 0.00, 3.50, 0.000, 0.000, 0.000, 15:29:36.115
106, 69.52, 121.26, 0.00, 10.48, 0.000, 0.000, 0.000, 15:29:36.116
107, 63.05, 110.01, 0.00, 9.12, 0.000, 0.000, 0.000, 15:29:36.116
108, 61.61, 98.61, 0.00, 4.71, 0.000, 0.000, 0.000, 15:29:36.116
109, 59.67, 94.13, 0.00, 7.46, 0.000, 0.000, 0.000, 15:29:36.130
110, 54.84, 86.93, 0.00, 2.54, 0.000, 0.000, 0.000, 15:29:36.130
111, 49.91, 90.34, 0.00, 8.69, 0.000, 0.000, 0.000, 15:29:36.146
112, 52.27, 97.60, 0.00, 7.37, 0.000, 0.000, 0.000, 15:29:36.146
113, 55.93, 105.19, 0.00, 4.39, 0.000, 0.000, 0.000, 15:29:36.146
114, 57.41, 102.15, 0.00, 5.60, 0.000, 0.000, 0.000, 15:29:36.147
115, 58.66, 99.86, 0.00, 8.54, 0.000, 0.000, 0.000, 15:29:36.161
116, 59.34, 106.71, 0.00, 10.46, 0.000, 0.000, 0.000, 15:29:36.161
117, 66.69, 128.83, 0.00, 9.59, 0.000, 0.000, 0.000, 15:29:36.176
118, 69.30, 135.35, 0.00, 7.82, 0.000, 0.000, 0.000, 15:29:36.176
119, 68.37, 126.81, 0.00, 8.82, 0.000, 0.000, 0.000, 15:29:36.176
120, 71.59, 132.89, 0.00, 9.16, 0.000, 0.000, 0.000, 15:29:36.177
121, 75.28, 128.46, 0.00, 7.92, 0.000, 0.000, 0.000, 15:29:36.191
122, 76.13, 122.43, 0.00, 8.78, 0.000, 0.000, 0.000, 15:29:36.192
123, 69.15, 122.90, 0.00, 9.78, 0.000, 0.000, 0.000, 15:29:36.206
124, 69.28, 132.89, 0.00, 6.69, 0.000, 0.000, 0.000, 15:29:36.206
125, 68.98, 126.43, 0.00, 13.14, 0.000, 0.000, 0.000, 15:29:36.207
126, 68.27, 124.09, 0.00, 7.81, 0.000, 0.000, 0.000, 15:29:36.207
127, 66.62, 122.13, 0.00, 9.02, 0.000, 0.000, 0.000, 15:29:36.221
128, 65.62, 122.09, 0.00, 6.85, 0.000, 0.000, 0.000, 15:29:36.221
129, 68.26, 127.41, 0.00, 7.93, 0.000, 0.000, 0.000, 15:29:36.236
130, 63.57, 127.82, 0.00, 11.02, 0.000, 0.000, 0.000, 15:29:36.236
131, 56.10, 106.90, 0.00, 8.49, 0.000, 0.000, 0.000, 15:29:36.237
132, 54.70, 97.37, 0.00, 8.14, 0.000, 0.000, 0.000, 15:29:36.237
133, 52.97, 100.74, 0.00, 8.69, 0.000, 0.000, 0.000, 15:29:36.251
134, 54.18, 97.64, 0.00, 9.72, 0.000, 0.000, 0.000, 15:29:36.251
135, 46.92, 93.31, 0.00, 7.68, 0.000, 0.000, 0.000, 15:29:36.266
136, 53.64, 98.63, 0.00, 4.09, 0.000, 0.000, 0.000, 15:29:36.266
137, 55.31, 100.64, 0.00, 10.13, 0.000, 0.000, 0.000, 15:29:36.266
138, 52.83, 107.34, 0.00, 6.13, 0.000, 0.000, 0.000, 15:29:36.266
139, 46.08, 104.91, 0.00, 9.54, 0.000, 0.000, 0.000, 15:29:36.281
140, 48.99, 105.14, 0.00, 8.75, 0.000, 0.000, 0.000, 15:29:36.281
141, 58.80, 111.92, 0.00, 11.17, 0.000, 0.000, 0.000, 15:29:36.296
142, 62.78, 118.97, 0.00, 9.61, 0.000, 0.000, 0.000, 15:29:36.296
143, 61.06, 118.12, 0.00, 6.07, 0.000, 0.000, 0.000, 15:29:36.296
144, 68.96, 126.47, 0.00, 8.09, 0.000, 0.000, 0.000, 15:29:36.297
145, 72.34, 133.30, 0.00, 10.01, 0.000, 0.000, 0.000, 15:29:36.311
146, 69.64, 124.36, 0.00, 8.69, 0.000, 0.000, 0.000, 15:29:36.312
147, 66.82, 123.94, 0.00, 7.65, 0.000, 0.000, 0.000, 15:29:36.326
148, 67.63, 128.49, 0.00, 12.47, 0.000, 0.000, 0.000, 15:29:36.326
149, 71.31, 127.75, 0.00, 5.57, 0.000, 0.000, 0.000, 15:29:36.327
150, 70.72, 122.31, 0.00, 5.78, 0.000, 0.000, 0.000, 15:29:36.327
151, 63.72, 119.00, 0.00, 11.05, 0.000, 0.000, 0.000, 15:29:36.342
152, 63.60, 112.78, 0.00, 8.84, 0.000, 0.000, 0.000, 15:29:36.342
153, 64.75, 120.22, 0.00, 6.48, 0.000, 0.000, 0.000, 15:29:36.356
154, 66.70, 121.58, 0.00, 8.56, 0.000, 0.000, 0.000, 15:29:36.357
155, 63.67, 108.92, 0.00, 12.63, 0.000, 0.000, 0.000, 15:29:36.357
156, 57.78, 108.06, 0.00, 14.73, 0.000, 0.000, 0.000, 15:29:36.357
157, 61.38, 110.19, 0.00, 8.91, 0.000, 0.000, 0.000, 15:29:36.371
158, 58.50, 101.84, 0.00, 7.49, 0.000, 0.000, 0.000, 15:29:36.372
159, 57.31, 95.69, 0.00, 7.64, 0.000, 0.000, 0.000, 15:29:36.387
160, 56.48, 108.35, 0.00, 9.02, 0.000, 0.000, 0.000, 15:29:36.387
161, 57.77, 110.97, 0.00, 10.12, 0.000, 0.000, 0.000, 15:29:36.387
162, 51.06, 106.45, 0.00, 6.08, 0.000, 0.000, 0.000, 15:29:36.387
163, 47.87, 105.04, 0.00, 10.93, 0.000, 0.000, 0.000, 15:29:36.401
164, 49.95, 114.70, 0.00, 12.52, 0.000, 0.000, 0.000, 15:29:36.401
165, 59.29, 134.84, 0.00, 9.76, 0.000, 0.000, 0.000, 15:29:36.416
166, 55.72, 128.21, 0.00, 9.77, 0.000, 0.000, 0.000, 15:29:36.416
167, 55.29, 122.44, 0.00, 11.49, 0.000, 0.000, 0.000, 15:29:36.416
168, 59.41, 127.49, 0.00, 9.65, 0.000, 0.000, 0.000, 15:29:36.417
169, 59.72, 127.93, 0.00, 11.48, 0.000, 0.000, 0.000, 15:29:36.431
170, 56.22, 115.96, 0.00, 8.67, 0.000, 0.000, 0.000, 15:29:36.432
171, 48.20, 121.54, 0.00, 4.23, 0.000, 0.000, 0.000, 15:29:36.447
172, 55.44, 125.66, 0.00, 12.82, 0.000, 0.000, 0.000, 15:29:36.447
173, 53.87, 125.23, 0.00, 6.40, 0.000, 0.000, 0.000, 15:29:36.447
174, 52.90, 120.77, 0.00, 10.67, 0.000, 0.000, 0.000, 15:29:36.447
175, 52.32, 118.81, 0.00, 6.15, 0.000, 0.000, 0.000, 15:29:36.461
176, 48.74, 124.23, 0.00, 10.82, 0.000, 0.000, 0.000, 15:29:36.461
177, 54.07, 125.71, 0.00, 8.12, 0.000, 0.000, 0.000, 15:29:36.479
178, 52.27, 123.22, 0.00, 10.37, 0.000, 0.000, 0.000, 15:29:36.479
179, 42.66, 115.20, 0.00, 9.16, 0.000, 0.000, 0.000, 15:29:36.479
180, 48.64, 118.83, 0.00, 8.10, 0.000, 0.000, 0.000, 15:29:36.479
181, 57.69, 124.11, 0.00, 4.10, 0.000, 0.000, 0.000, 15:29:36.491
182, 48.32, 118.75, 0.00, 4.94, 0.000, 0.000, 0.000, 15:29:36.491
183, 40.42, 117.78, 0.00, 13.38, 0.000, 0.000, 0.000, 15:29:36.506
184, 44.29, 124.62, 0.00, 7.40, 0.000, 0.000, 0.000, 15:29:36.506
185, 45.54, 122.32, 0.00, 5.47, 0.000, 0.000, 0.000, 15:29:36.506
186, 44.47, 120.89, 0.00, 6.30, 0.000, 0.000, 0.000, 15:29:36.506
187, 40.44, 120.62, 0.00, 10.48, 0.000, 0.000, 0.000, 15:29:36.528
188, 47.06, 120.21, 0.00, 4.68, 0.000, 0.000, 0.000, 15:29:36.528
189, 49.77, 124.13, 0.00, 8.53, 0.000, 0.000, 0.000, 15:29:36.537
190, 41.97, 120.29, 0.00, 5.18, 0.000, 0.000, 0.000, 15:29:36.537
191, 39.29, 110.29, 0.00, 7.17, 0.000, 0.000, 0.000, 15:29:36.537
192, 35.69, 108.97, 0.00, 6.32, 0.000, 0.000, 0.000, 15:29:36.537
193, 37.99, 112.20, 0.00, 3.12, 0.000, 0.000, 0.000, 15:29:36.551
194, 39.39, 118.78, 0.00, 7.71, 0.000, 0.000, 0.000, 15:29:36.551
195, 36.71, 124.39, 0.00, 4.04, 0.000, 0.000, 0.000, 15:29:36.566
196, 45.37, 129.25, 0.00, 13.49, 0.000, 0.000, 0.000, 15:29:36.566
197, 45.89, 130.33, 0.00, 7.47, 0.000, 0.000, 0.000, 15:29:36.566
198, 44.74, 126.45, 0.00, 11.75, 0.000, 0.000, 0.000, 15:29:36.566
199, 42.67, 127.39, 0.00, 6.64, 0.000, 0.000, 0.000, 15:29:36.581
200, 45.53, 128.59, 0.00, 9.74, 0.000, 0.000, 0.000, 15:29:36.581
0, 52.16, 131.12, 0.00, 8.45, 0.000, 0.000, 0.000, 15:29:36.581
1, 50.40, 123.53, 0.00, 3.81, 0.000, 0.000, 0.000, 15:29:36.598
2, 43.00, 123.75, 0.00, 8.26, 0.000, 0.000, 0.000, 15:29:36.598
3, 49.22, 127.19, 0.00, 10.00, 0.000, 0.000, 0.000, 15:29:36.611
4, 53.00, 125.98, 0.00, 8.90, 0.000, 0.000, 0.000, 15:29:36.611
5, 50.08, 121.01, 0.00, 7.77, 0.000, 0.000, 0.000, 15:29:36.612
6, 49.16, 125.50, 0.00, 10.14, 0.000, 0.000, 0.000, 15:29:36.612
7, 48.38, 125.68, 0.00, 7.73, 0.000, 0.000, 0.000, 15:29:36.627
8, 56.31, 128.65, 0.00, 11.37, 0.000, 0.000, 0.000, 15:29:36.627
9, 54.01, 129.38, 0.00, 6.94, 0.000, 0.000, 0.000, 15:29:36.644
10, 52.23, 123.18, 0.00, 7.44, 0.000, 0.000, 0.000, 15:29:36.644
11, 50.05, 121.60, 0.00, 7.09, 0.000, 0.000, 0.000, 15:29:36.645
12, 51.72, 123.63, 0.00, 8.72, 0.000, 0.000, 0.000, 15:29:36.645
13, 51.26, 118.64, 0.00, 9.40, 0.000, 0.000, 0.000, 15:29:36.656
14, 46.11, 110.82, 0.00, 9.78, 0.000, 0.000, 0.000, 15:29:36.656
15, 42.04, 106.75, 0.00, 8.57, 0.000, 0.000, 0.000, 15:29:36.671
16, 47.75, 107.14, 0.00, 7.67, 0.000, 0.000, 0.000, 15:29:36.671
17, 46.39, 108.23, 0.00, 10.45, 0.000, 0.000, 0.000, 15:29:36.672
18, 42.11, 101.03, 0.00, 4.20, 0.000, 0.000, 0.000, 15:29:36.672
19, 42.25, 106.45, 0.00, 10.58, 0.000, 0.000, 0.000, 15:29:36.688
20, 49.75, 117.29, 0.00, 7.59, 0.000, 0.000, 0.000, 15:29:36.688
21, 53.07, 122.21, 0.00, 5.74, 0.000, 0.000, 0.000, 15:29:36.702
22, 51.29, 124.09, 0.00, 9.76, 0.000, 0.000, 0.000, 15:29:36.702
23, 53.91, 124.56, 0.00, 4.99, 0.000, 0.000, 0.000, 15:29:36.702
24, 60.38, 123.45, 0.00, 8.87, 0.000, 0.000, 0.000, 15:29:36.703
25, 58.06, 121.06, 0.00, 10.08, 0.000, 0.000, 0.000, 15:29:36.716
26, 50.53, 118.44, 0.00, 8.34, 0.000, 0.000, 0.000, 15:29:36.716
27, 58.12, 128.95, 0.00, 5.97, 0.000, 0.000, 0.000, 15:29:36.731
28, 62.96, 132.06, 0.00, 1.13, 0.000, 0.000, 0.000, 15:29:36.731
29, 56.06, 119.46, 0.00, 11.36, 0.000, 0.000, 0.000, 15:29:36.732
30, 53.54, 124.44, 0.00, 4.19, 0.000, 0.000, 0.000, 15:29:36.732
31, 55.36, 126.91, 0.00, 7.68, 0.000, 0.000, 0.000, 15:29:36.746
32, 62.35, 126.51, 0.00, 8.78, 0.000, 0.000, 0.000, 15:29:36.746
33, 57.92, 121.64, 0.00, 10.00, 0.000, 0.000, 0.000, 15:29:36.761
34, 53.14, 121.59, 0.00, 8.38, 0.000, 0.000, 0.000, 15:29:36.761
35, 53.51, 124.72, 0.00, 7.11, 0.000, 0.000, 0.000, 15:29:36.762
36, 56.21, 126.53, 0.00, 6.88, 0.000, 0.000, 0.000, 15:29:36.762
37, 56.89, 123.27, 0.00, 11.84, 0.000, 0.000, 0.000, 15:29:36.776
38, 55.40, 122.71, 0.00, 11.17, 0.000, 0.000, 0.000, 15:29:36.776
39, 57.45, 123.65, 0.00, 10.52, 0.000, 0.000, 0.000, 15:29:36.791
40, 62.18, 123.03, 0.00, 10.58, 0.000, 0.000, 0.000, 15:29:36.791
41, 58.62, 118.26, 0.00, 4.97, 0.000, 0.000, 0.000, 15:29:36.791
42, 56.38, 115.93, 0.00, 6.52, 0.000, 0.000, 0.000, 15:29:36.792
43, 60.53, 119.66, 0.00, 7.45, 0.000, 0.000, 0.000, 15:29:36.806
44, 63.03, 122.27, 0.00, 3.77, 0.000, 0.000, 0.000, 15:29:36.807
45, 58.39, 122.57, 0.00, 11.52, 0.000, 0.000, 0.000, 15:29:36.822
46, 54.57, 120.25, 0.00, 10.88, 0.000, 0.000, 0.000, 15:29:36.822
47, 63.05, 120.04, 0.00, 10.02, 0.000, 0.000, 0.000, 15:29:36.822
48, 67.62, 123.71, 0.00, 5.76, 0.000, 0.000, 0.000, 15:29:36.823
49, 64.61, 122.08, 0.00, 8.21, 0.000, 0.000, 0.000, 15:29:36.836
50, 60.82, 117.20, 0.00, 10.55, 0.000, 0.000, 0.000, 15:29:36.837
51, 59.96, 124.43, 0.00, 5.08, 0.000, 0.000, 0.000, 15:29:36.851
52, 62.90, 125.04, 0.00, 3.65, 0.000, 0.000, 0.000, 15:29:36.851
53, 61.10, 124.05, 0.00, 8.45, 0.000, 0.000, 0.000, 15:29:36.852
54, 58.30, 119.71, 0.00, 5.05, 0.000, 0.000, 0.000, 15:29:36.852
55, 63.42, 123.13, 0.00, 10.91, 0.000, 0.000, 0.000, 15:29:36.866
56, 64.39, 122.96, 0.00, 7.85, 0.000, 0.000, 0.000, 15:29:36.866
57, 67.41, 123.01, 0.00, 9.68, 0.000, 0.000, 0.000, 15:29:36.881
58, 63.79, 117.39, 0.00, 4.72, 0.000, 0.000, 0.000, 15:29:36.882
59, 65.45, 127.43, 0.00, 9.27, 0.000, 0.000, 0.000, 15:29:36.889
60, 71.72, 135.16, 0.00, 4.27, 0.000, 0.000, 0.000, 15:29:36.889
61, 72.90, 131.17, 0.00, 11.04, 0.000, 0.000, 0.000, 15:29:36.896
62, 69.46, 123.36, 0.00, 9.37, 0.000, 0.000, 0.000, 15:29:36.896
63, 67.05, 122.17, 0.00, 8.05, 0.000, 0.000, 0.000, 15:29:36.910
64, 68.61, 124.42, 0.00, 9.22, 0.000, 0.000, 0.000, 15:29:36.910
65, 63.49, 109.16, 0.00, 10.17, 0.000, 0.000, 0.000, 15:29:36.911
66, 52.96, 97.36, 0.00, 10.93, 0.000, 0.000, 0.000, 15:29:36.911
67, 52.73, 97.41, 0.00, 11.16, 0.000, 0.000, 0.000, 15:29:36.926
68, 54.18, 99.64, 0.00, 5.21, 0.000, 0.000, 0.000, 15:29:36.926
69, 53.81, 98.39, 0.00, 10.71, 0.000, 0.000, 0.000, 15:29:36.941
70, 52.80, 96.99, 0.00, 9.39, 0.000, 0.000, 0.000, 15:29:36.941
71, 52.03, 102.83, 0.00, 8.00, 0.000, 0.000, 0.000, 15:29:36.941
72, 55.61, 109.35, 0.00, 9.39, 0.000, 0.000, 0.000, 15:29:36.942
73, 53.88, 106.34, 0.00, 7.26, 0.000, 0.000, 0.000, 15:29:36.956
74, 48.38, 103.12, 0.00, 11.04, 0.000, 0.000, 0.000, 15:29:36.956
75, 55.18, 114.96, 0.00, 8.97, 0.000, 0.000, 0.000, 15:29:36.971
76, 64.41, 129.38, 0.00, 7.66, 0.000, 0.000, 0.000, 15:29:36.971
77, 61.34, 123.77, 0.00, 3.88, 0.000, 0.000, 0.000, 15:29:36.971
78, 55.78, 123.74, 0.00, 6.78, 0.000, 0.000, 0.000, 15:29:36.971
79, 62.56, 125.84, 0.00, 11.89, 0.000, 0.000, 0.000, 15:29:36.987
80, 65.78, 126.73, 0.00, 7.60, 0.000, 0.000, 0.000, 15:29:36.987
81, 66.31, 129.77, 0.00, 8.75, 0.000, 0.000, 0.000, 15:29:37.001
82, 64.39, 122.85, 0.00, 9.73, 0.000, 0.000, 0.000, 15:29:37.001
83, 65.29, 119.15, 0.00, 10.09, 0.000, 0.000, 0.000, 15:29:37.001
84, 71.59, 131.69, 0.00, 8.58, 0.000, 0.000, 0.000, 15:29:37.001
85, 68.41, 124.31, 0.00, 13.40, 0.000, 0.000, 0.000, 15:29:37.016
86, 61.42, 118.98, 0.00, 11.45, 0.000, 0.000, 0.000, 15:29:37.016
87, 62.84, 118.29, 0.00, 8.88, 0.000, 0.000, 0.000, 15:29:37.030
88, 64.97, 119.96, 0.00, 7.29, 0.000, 0.000, 0.000, 15:29:37.030
89, 64.99, 120.56, 0.00, 11.56, 0.000, 0.000, 0.000, 15:29:37.031
90, 51.53, 106.58, 0.00, 7.87, 0.000, 0.000, 0.000, 15:29:37.031
91, 54.37, 99.37, 0.00, 9.42, 0.000, 0.000, 0.000, 15:29:37.047
92, 52.78, 102.33, 0.00, 9.11, 0.000, 0.000, 0.000, 15:29:37.047
93, 55.56, 99.97, 0.00, 9.51, 0.000, 0.000, 0.000, 15:29:37.061
94, 54.11, 98.69, 0.00, 11.89, 0.000, 0.000, 0.000, 15:29:37.061
95, 58.62, 109.37, 0.00, 8.35, 0.000, 0.000, 0.000, 15:29:37.061
96, 61.43, 118.89, 0.00, 2.52, 0.000, 0.000, 0.000, 15:29:37.061
97, 57.87, 121.36, 0.00, 5.28, 0.000, 0.000, 0.000, 15:29:37.076
98, 57.48, 120.98, 0.00, 6.31, 0.000, 0.000, 0.000, 15:29:37.076
99, 57.83, 122.86, 0.00, 7.53, 0.000, 0.000, 0.000, 15:29:37.091
100, 64.23, 123.66, 0.00, 3.64, 0.000, 0.000, 0.000, 15:29:37.091
101, 59.66, 112.38, 0.00, 9.12, 0.000, 0.000, 0.000, 15:29:37.091
102, 55.57, 107.62, 0.00, 6.61, 0.000, 0.000, 0.000, 15:29:37.091
103, 56.19, 107.95, 0.00, 8.87, 0.000, 0.000, 0.000, 15:29:37.106
104, 58.77, 113.58, 0.00, 5.30, 0.000, 0.000, 0.000, 15:29:37.106
105, 64.72, 122.34, 0.00, 11.11, 0.000, 0.000, 0.000, 15:29:37.121
106, 59.83, 121.91, 0.00, 5.15, 0.000, 0.000, 0.000, 15:29:37.121
107, 62.69, 125.90, 0.00, 9.72, 0.000, 0.000, 0.000, 15:29:37.121
108, 65.96, 129.34, 0.00, 12.02, 0.000, 0.000, 0.000, 15:29:37.122
109, 67.07, 128.62, 0.00, 12.24, 0.000, 0.000, 0.000, 15:29:37.137
110, 65.85, 119.50, 0.00, 11.99, 0.000, 0.000, 0.000, 15:29:37.137
111, 63.36, 123.44, 0.00, 4.57, 0.000, 0.000, 0.000, 15:29:37.151
112, 66.49, 129.83, 0.00, 9.79, 0.000, 0.000, 0.000, 15:29:37.151
113, 65.58, 127.75, 0.00, 6.36, 0.000, 0.000, 0.000, 15:29:37.151
114, 57.18, 119.14, 0.00, 3.49, 0.000, 0.000, 0.000, 15:29:37.152
115, 59.70, 117.87, 0.00, 10.35, 0.000, 0.000, 0.000, 15:29:37.166
116, 64.69, 118.90, 0.00, 11.01, 0.000, 0.000, 0.000, 15:29:37.166
117, 62.92, 112.30, 0.00, 5.51, 0.000, 0.000, 0.000, 15:29:37.181
118, 56.69, 101.87, 0.00, 8.03, 0.000, 0.000, 0.000, 15:29:37.181
119, 52.37, 96.29, 0.00, 9.41, 0.000, 0.000, 0.000, 15:29:37.181
120, 56.91, 102.10, 0.00, 8.66, 0.000, 0.000, 0.000, 15:29:37.181
121, 53.19, 104.43, 0.00, 11.00, 0.000, 0.000, 0.000, 15:29:37.195
122, 53.62, 103.32, 0.00, 10.45, 0.000, 0.000, 0.000, 15:29:37.195
123, 59.31, 114.31, 0.00, 9.57, 0.000, 0.000, 0.000, 15:29:37.212
124, 62.63, 122.95, 0.00, 7.09, 0.000, 0.000, 0.000, 15:29:37.212
125, 60.85, 121.82, 0.00, 6.39, 0.000, 0.000, 0.000, 15:29:37.212
126, 56.21, 116.14, 0.00, 5.49, 0.000, 0.000, 0.000, 15:29:37.212
127, 61.41, 122.81, 0.00, 8.21, 0.000, 0.000, 0.000, 15:29:37.226
128, 64.42, 123.60, 0.00, 7.80, 0.000, 0.000, 0.000, 15:29:37.226
129, 65.41, 117.50, 0.00, 8.16, 0.000, 0.000, 0.000, 15:29:37.241
130, 62.52, 114.80, 0.00, 8.76, 0.000, 0.000, 0.000, 15:29:37.241
131, 60.66, 111.03, 0.00, 8.26, 0.000, 0.000, 0.000, 15:29:37.242
132, 56.89, 110.27, 0.00, 9.87, 0.000, 0.000, 0.000, 15:29:37.242
133, 54.27, 112.76, 0.00, 9.63, 0.000, 0.000, 0.000, 15:29:37.256
134, 51.43, 103.76, 0.00, 10.04, 0.000, 0.000, 0.000, 15:29:37.256
135, 56.73, 105.90, 0.00, 8.28, 0.000, 0.000, 0.000, 15:29:37.271
136, 58.87, 117.89, 0.00, 8.43, 0.000, 0.000, 0.000, 15:29:37.271
137, 65.18, 125.44, 0.00, 2.86, 0.000, 0.000, 0.000, 15:29:37.272
138, 64.98, 129.03, 0.00, 2.52, 0.000, 0.000, 0.000, 15:29:37.272
139, 69.74, 135.32, 0.00, 5.30, 0.000, 0.000, 0.000, 15:29:37.286
140, 71.77, 132.19, 0.00, 11.44, 0.000, 0.000, 0.000, 15:29:37.286
141, 68.33, 130.89, 0.00, 8.18, 0.000, 0.000, 0.000, 15:29:37.300
142, 67.54, 127.65, 0.00, 3.75, 0.000, 0.000, 0.000, 15:29:37.301
143, 66.14, 126.56, 0.00, 7.24, 0.000, 0.000, 0.000, 15:29:37.301
144, 71.80, 133.43, 0.00, 11.35, 0.000, 0.000, 0.000, 15:29:37.301
145, 66.29, 128.27, 0.00, 7.90, 0.000, 0.000, 0.000, 15:29:37.323
146, 63.45, 113.16, 0.00, 11.99, 0.000, 0.000, 0.000, 15:29:37.323
147, 55.30, 103.27, 0.00, 9.65, 0.000, 0.000, 0.000, 15:29:37.331
148, 56.95, 103.56, 0.00, 12.11, 0.000, 0.000, 0.000, 15:29:37.331
149, 52.82, 99.46, 0.00, 10.09, 0.000, 0.000, 0.000, 15:29:37.331
150, 48.07, 102.47, 0.00, 8.01, 0.000, 0.000, 0.000, 15:29:37.331
151, 52.78, 110.75, 0.00, 6.90, 0.000, 0.000, 0.000, 15:29:37.346
152, 60.69, 115.96, 0.00, 7.44, 0.000, 0.000, 0.000, 15:29:37.346
153, 61.38, 124.23, 0.00, 5.48, 0.000, 0.000, 0.000, 15:29:37.361
154, 61.38, 121.05, 0.00, 10.22, 0.000, 0.000, 0.000, 15:29:37.361
155, 63.62, 126.52, 0.00, 12.99, 0.000, 0.000, 0.000, 15:29:37.362
156, 68.06, 134.77, 0.00, 12.36, 0.000, 0.000, 0.000, 15:29:37.362
157, 66.80, 129.39, 0.00, 8.17, 0.000, 0.000, 0.000, 15:29:37.376
158, 56.94, 114.22, 0.00, 6.06, 0.000, 0.000, 0.000, 15:29:37.377
159, 62.54, 115.41, 0.00, 9.81, 0.000, 0.000, 0.000, 15:29:37.392
160, 66.70, 126.54, 0.00, 8.75, 0.000, 0.000, 0.000, 15:29:37.392
161, 64.88, 120.83, 0.00, 8.61, 0.000, 0.000, 0.000, 15:29:37.392
162, 58.88, 120.64, 0.00, 10.05, 0.000, 0.000, 0.000, 15:29:37.393
163, 62.66, 122.28, 0.00, 6.24, 0.000, 0.000, 0.000, 15:29:37.407
164, 63.03, 121.05, 0.00, 13.29, 0.000, 0.000, 0.000, 15:29:37.407
165, 57.93, 112.63, 0.00, 13.62, 0.000, 0.000, 0.000, 15:29:37.422
166, 47.74, 105.04, 0.00, 15.32, 0.000, 0.000, 0.000, 15:29:37.422
167, 51.61, 109.06, 0.00, 10.48, 0.000, 0.000, 0.000, 15:29:37.422
168, 56.58, 122.38, 0.00, 8.25, 0.000, 0.000, 0.000, 15:29:37.422
169, 61.06, 125.54, 0.00, 7.31, 0.000, 0.000, 0.000, 15:29:37.437
170, 53.27, 122.51, 0.00, 8.30, 0.000, 0.000, 0.000, 15:29:37.437
171, 56.14, 126.94, 0.00, 10.01, 0.000, 0.000, 0.000, 15:29:37.452
172, 62.11, 129.95, 0.00, 11.74, 0.000, 0.000, 0.000, 15:29:37.452
173, 58.46, 120.84, 0.00, 7.59, 0.000, 0.000, 0.000, 15:29:37.452
174, 53.79, 120.05, 0.00, 7.15, 0.000, 0.000, 0.000, 15:29:37.452
175, 54.88, 122.82, 0.00, 7.68, 0.000, 0.000, 0.000, 15:29:37.466
176, 57.22, 125.12, 0.00, 8.85, 0.000, 0.000, 0.000, 15:29:37.466
177, 53.65, 125.50, 0.00, 9.62, 0.000, 0.000, 0.000, 15:29:37.481
178, 52.66, 121.89, 0.00, 10.27, 0.000, 0.000, 0.000, 15:29:37.482
179, 54.84, 124.10, 0.00, 7.62, 0.000, 0.000, 0.000, 15:29:37.482
180, 60.10, 129.81, 0.00, 12.46, 0.000, 0.000, 0.000, 15:29:37.482
181, 58.70, 124.05, 0.00, 9.35, 0.000, 0.000, 0.000, 15:29:37.497
182, 59.33, 121.25, 0.00, 11.12, 0.000, 0.000, 0.000, 15:29:37.497
183, 59.07, 125.70, 0.00, 7.28, 0.000, 0.000, 0.000, 15:29:37.511
184, 59.49, 131.02, 0.00, 5.34, 0.000, 0.000, 0.000, 15:29:37.511
185, 57.76, 120.38, 0.00, 12.78, 0.000, 0.000, 0.000, 15:29:37.512
186, 55.89, 121.49, 0.00, 7.51, 0.000, 0.000, 0.000, 15:29:37.512
187, 53.03, 123.78, 0.00, 11.88, 0.000, 0.000, 0.000, 15:29:37.525
188, 57.26, 123.20, 0.00, 9.34, 0.000, 0.000, 0.000, 15:29:37.526
189, 54.95, 122.79, 0.00, 9.91, 0.000, 0.000, 0.000, 15:29:37.541
190, 54.05, 122.03, 0.00, 10.87, 0.000, 0.000, 0.000, 15:29:37.541
191, 57.12, 127.70, 0.00, 12.06, 0.000, 0.000, 0.000, 15:29:37.541
192, 64.99, 133.21, 0.00, 10.05, 0.000, 0.000, 0.000, 15:29:37.541
193, 58.08, 132.04, 0.00, 11.96, 0.000, 0.000, 0.000, 15:29:37.556
194, 57.16, 129.79, 0.00, 6.75, 0.000, 0.000, 0.000, 15:29:37.556
195, 58.09, 132.33, 0.00, 5.61, 0.000, 0.000, 0.000, 15:29:37.571
196, 63.58, 129.03, 0.00, 10.11, 0.000, 0.000, 0.000, 15:29:37.571
197, 62.08, 123.48, 0.00, 7.29, 0.000, 0.000, 0.000, 15:29:37.571
198, 58.91, 128.64, 0.00, 8.60, 0.000, 0.000, 0.000, 15:29:37.571
199, 61.07, 132.44, 0.00, 6.89, 0.000, 0.000, 0.000, 15:29:37.587
200, 63.64, 130.20, 0.00, 9.33, 0.000, 0.000, 0.000, 15:29:37.587
0, 60.94, 130.09, 0.00, 12.09, 0.000, 0.000, 0.000, 15:29:37.587
1, 61.03, 126.92, 0.00, 10.17, 0.000, 0.000, 0.000, 15:29:37.601
2, 64.61, 132.41, 0.00, 9.30, 0.000, 0.000, 0.000, 15:29:37.601
3, 68.77, 137.67, 0.00, 5.15, 0.000, 0.000, 0.000, 15:29:37.616
4, 68.40, 139.99, 0.00, 9.84, 0.000, 0.000, 0.000, 15:29:37.616
5, 66.80, 131.27, 0.00, 5.75, 0.000, 0.000, 0.000, 15:29:37.616
6, 70.96, 138.57, 0.00, 6.92, 0.000, 0.000, 0.000, 15:29:37.616
7, 71.02, 138.11, 0.00, 9.73, 0.000, 0.000, 0.000, 15:29:37.630
8, 66.96, 131.28, 0.00, 11.79, 0.000, 0.000, 0.000, 15:29:37.630
9, 63.28, 130.13, 0.00, 8.05, 0.000, 0.000, 0.000, 15:29:37.645
10, 70.20, 134.55, 0.00, 8.89, 0.000, 0.000, 0.000, 15:29:37.645
11, 66.45, 129.23, 0.00, 7.99, 0.000, 0.000, 0.000, 15:29:37.646
12, 66.37, 127.81, 0.00, 0.89, 0.000, 0.000, 0.000, 15:29:37.646
13, 64.47, 124.94, 0.00, 9.81, 0.000, 0.000, 0.000, 15:29:37.661
14, 60.49, 117.24, 0.00, 7.73, 0.000, 0.000, 0.000, 15:29:37.661
15, 62.47, 121.31, 0.00, 7.34, 0.000, 0.000, 0.000, 15:29:37.676
16, 57.95, 116.97, 0.00, 9.92, 0.000, 0.000, 0.000, 15:29:37.676
17, 53.64, 119.35, 0.00, 9.92, 0.000, 0.000, 0.000, 15:29:37.676
18, 59.40, 122.56, 0.00, 5.97, 0.000, 0.000, 0.000, 15:29:37.676
19, 60.84, 127.02, 0.00, 11.06, 0.000, 0.000, 0.000, 15:29:37.691
20, 59.90, 118.76, 0.00, 5.91, 0.000, 0.000, 0.000, 15:29:37.691
21, 60.68, 122.00, 0.00, 7.08, 0.000, 0.000, 0.000, 15:29:37.706
22, 63.07, 122.32, 0.00, 9.09, 0.000, 0.000, 0.000, 15:29:37.706
23, 65.81, 128.73, 0.00, 8.90, 0.000, 0.000, 0.000, 15:29:37.707
24, 68.38, 129.57, 0.00, 9.76, 0.000, 0.000, 0.000, 15:29:37.707
25, 66.75, 132.83, 0.00, 5.92, 0.000, 0.000, 0.000, 15:29:37.721
26, 70.81, 133.44, 0.00, 13.03, 0.000, 0.000, 0.000, 15:29:37.721
27, 73.51, 133.47, 0.00, 9.18, 0.000, 0.000, 0.000, 15:29:37.736
28, 75.35, 126.79, 0.00, 10.58, 0.000, 0.000, 0.000, 15:29:37.736
29, 69.18, 122.83, 0.00, 11.28, 0.000, 0.000, 0.000, 15:29:37.736
30, 68.99, 124.90, 0.00, 6.68, 0.000, 0.000, 0.000, 15:29:37.737
31, 74.98, 129.79, 0.00, 8.81, 0.000, 0.000, 0.000, 15:29:37.752
32, 67.59, 120.72, 0.00, 10.61, 0.000, 0.000, 0.000, 15:29:37.753
33, 57.79, 100.52, 0.00, 8.94, 0.000, 0.000, 0.000, 15:29:37.766
34, 57.68, 97.26, 0.00, 8.26, 0.000, 0.000, 0.000, 15:29:37.766
35, 56.06, 97.44, 0.00, 9.03, 0.000, 0.000, 0.000, 15:29:37.766
36, 55.64, 95.12, 0.00, 8.29, 0.000, 0.000, 0.000, 15:29:37.767
37, 53.29, 96.10, 0.00, 8.58, 0.000, 0.000, 0.000, 15:29:37.782
38, 55.79, 105.19, 0.00, 8.85, 0.000, 0.000, 0.000, 15:29:37.782
39, 61.11, 110.10, 0.00, 9.41, 0.000, 0.000, 0.000, 15:29:37.795
40, 59.71, 109.64, 0.00, 8.61, 0.000, 0.000, 0.000, 15:29:37.795
41, 52.12, 103.14, 0.00, 11.93, 0.000, 0.000, 0.000, 15:29:37.796
42, 58.14, 115.37, 0.00, 3.71, 0.000, 0.000, 0.000, 15:29:37.796
43, 63.41, 123.43, 0.00, 7.43, 0.000, 0.000, 0.000, 15:29:37.811
44, 59.48, 120.95, 0.00, 8.69, 0.000, 0.000, 0.000, 15:29:37.811
45, 59.24, 122.97, 0.00, 9.29, 0.000, 0.000, 0.000, 15:29:37.826
46, 55.32, 128.81, 0.00, 10.36, 0.000, 0.000, 0.000, 15:29:37.827
47, 60.57, 128.30, 0.00, 11.62, 0.000, 0.000, 0.000, 15:29:37.841
48, 61.24, 124.64, 0.00, 14.20, 0.000, 0.000, 0.000, 15:29:37.841
49, 59.32, 127.63, 0.00, 10.96, 0.000, 0.000, 0.000, 15:29:37.841
50, 58.78, 127.70, 0.00, 11.24, 0.000, 0.000, 0.000, 15:29:37.841
51, 60.22, 130.82, 0.00, 8.18, 0.000, 0.000, 0.000, 15:29:37.857
52, 56.59, 125.45, 0.00, 11.97, 0.000, 0.000, 0.000, 15:29:37.857
53, 51.96, 123.52, 0.00, 7.72, 0.000, 0.000, 0.000, 15:29:37.857
54, 52.37, 127.76, 0.00, 8.86, 0.000, 0.000, 0.000, 15:29:37.858
55, 57.47, 127.85, 0.00, 9.50, 0.000, 0.000, 0.000, 15:29:37.872
56, 54.31, 121.53, 0.00, 6.97, 0.000, 0.000, 0.000, 15:29:37.872
57, 49.99, 120.72, 0.00, 7.67, 0.000, 0.000, 0.000, 15:29:37.887
58, 50.83, 128.79, 0.00, 8.88, 0.000, 0.000, 0.000, 15:29:37.887
59, 52.09, 127.18, 0.00, 10.93, 0.000, 0.000, 0.000, 15:29:37.887
60, 50.90, 120.03, 0.00, 8.66, 0.000, 0.000, 0.000, 15:29:37.888
61, 52.39, 123.28, 0.00, 4.22, 0.000, 0.000, 0.000, 15:29:37.902
62, 49.08, 126.12, 0.00, 0.07, 0.000, 0.000, 0.000, 15:29:37.902
63, 49.92, 126.28, 0.00, 3.48, 0.000, 0.000, 0.000, 15:29:37.916
64, 46.06, 121.71, 0.00, 6.77, 0.000, 0.000, 0.000, 15:29:37.917
65, 36.28, 111.17, 0.00, 2.84, 0.000, 0.000, 0.000, 15:29:37.917
66, 42.49, 106.53, 0.00, 9.23, 0.000, 0.000, 0.000, 15:29:37.917
67, 43.39, 106.31, 0.00, 8.87, 0.000, 0.000, 0.000, 15:29:37.931
68, 42.11, 100.67, 0.00, 10.96, 0.000, 0.000, 0.000, 15:29:37.931
69, 38.94, 103.27, 0.00, 8.80, 0.000, 0.000, 0.000, 15:29:37.946
70, 43.76, 106.18, 0.00, 8.34, 0.000, 0.000, 0.000, 15:29:37.946
71, 47.89, 114.40, 0.00, 4.56, 0.000, 0.000, 0.000, 15:29:37.946
72, 49.51, 124.37, 0.00, 9.72, 0.000, 0.000, 0.000, 15:29:37.947
73, 48.90, 123.55, 0.00, 5.81, 0.000, 0.000, 0.000, 15:29:37.961
74, 52.63, 129.24, 0.00, 6.02, 0.000, 0.000, 0.000, 15:29:37.961
75, 52.79, 130.17, 0.00, 4.51, 0.000, 0.000, 0.000, 15:29:37.977
76, 50.79, 127.52, 0.00, 10.13, 0.000, 0.000, 0.000, 15:29:37.977
77, 44.55, 122.79, 0.00, 11.58, 0.000, 0.000, 0.000, 15:29:37.977
78, 48.71, 128.55, 0.00, 11.64, 0.000, 0.000, 0.000, 15:29:37.978
79, 48.95, 131.87, 0.00, 12.35, 0.000, 0.000, 0.000, 15:29:37.991
80, 47.69, 126.20, 0.00, 10.27, 0.000, 0.000, 0.000, 15:29:37.991
81, 45.14, 124.30, 0.00, 9.86, 0.000, 0.000, 0.000, 15:29:38.006
82, 47.52, 127.39, 0.00, 4.91, 0.000, 0.000, 0.000, 15:29:38.006
83, 48.59, 126.67, 0.00, 3.18, 0.000, 0.000, 0.000, 15:29:38.007
84, 50.93, 118.89, 0.00, 8.42, 0.000, 0.000, 0.000, 15:29:38.007
85, 47.25, 115.83, 0.00, 10.82, 0.000, 0.000, 0.000, 15:29:38.021
86, 49.52, 117.30, 0.00, 5.31, 0.000, 0.000, 0.000, 15:29:38.021
87, 53.68, 121.06, 0.00, 12.13, 0.000, 0.000, 0.000, 15:29:38.036
88, 50.39, 118.28, 0.00, 9.34, 0.000, 0.000, 0.000, 15:29:38.036
89, 44.22, 109.78, 0.00, 11.10, 0.000, 0.000, 0.000, 15:29:38.037
90, 43.70, 110.71, 0.00, 7.08, 0.000, 0.000, 0.000, 15:29:38.037
91, 55.77, 126.57, 0.00, 12.33, 0.000, 0.000, 0.000, 15:29:38.051
92, 53.81, 125.02, 0.00, 7.55, 0.000, 0.000, 0.000, 15:29:38.051
93, 53.26, 121.13, 0.00, 8.32, 0.000, 0.000, 0.000, 15:29:38.066
94, 58.27, 129.05, 0.00, 9.33, 0.000, 0.000, 0.000, 15:29:38.066
95, 59.66, 125.35, 0.00, 5.29, 0.000, 0.000, 0.000, 15:29:38.066
96, 59.89, 117.52, 0.00, 10.49, 0.000, 0.000, 0.000, 15:29:38.066
97, 61.26, 121.39, 0.00, 11.48, 0.000, 0.000, 0.000, 15:29:38.088
98, 65.37, 120.35, 0.00, 4.93, 0.000, 0.000, 0.000, 15:29:38.088
99, 66.45, 124.23, 0.00, 7.32, 0.000, 0.000, 0.000, 15:29:38.096
100, 69.02, 126.09, 0.00, 9.69, 0.000, 0.000, 0.000, 15:29:38.096
101, 69.21, 120.15, 0.00, 10.47, 0.000, 0.000, 0.000, 15:29:38.096
102, 69.13, 127.74, 0.00, 8.35, 0.000, 0.000, 0.000, 15:29:38.097
103, 70.70, 131.12, 0.00, 6.31, 0.000, 0.000, 0.000, 15:29:38.112
104, 72.74, 125.24, 0.00, 4.63, 0.000, 0.000, 0.000, 15:29:38.112
105, 69.04, 123.12, 0.00, 10.04, 0.000, 0.000, 0.000, 15:29:38.126
106, 71.16, 130.54, 0.00, 9.02, 0.000, 0.000, 0.000, 15:29:38.127
107, 71.79, 129.57, 0.00, 5.84, 0.000, 0.000, 0.000, 15:29:38.127
108, 69.07, 122.72, 0.00, 11.37, 0.000, 0.000, 0.000, 15:29:38.127
109, 69.84, 120.98, 0.00, 10.71, 0.000, 0.000, 0.000, 15:29:38.143
110, 72.45, 123.26, 0.00, 5.70, 0.000, 0.000, 0.000, 15:29:38.143
111, 78.60, 124.73, 0.00, 10.31, 0.000, 0.000, 0.000, 15:29:38.156
112, 77.82, 118.17, 0.00, 6.91, 0.000, 0.000, 0.000, 15:29:38.156
113, 63.96, 110.38, 0.00, 6.13, 0.000, 0.000, 0.000, 15:29:38.156
114, 61.26, 93.37, 0.00, 7.12, 0.000, 0.000, 0.000, 15:29:38.157
115, 61.15, 94.93, 0.00, 10.57, 0.000, 0.000, 0.000, 15:29:38.171
116, 58.29, 88.36, 0.00, 9.12, 0.000, 0.000, 0.000, 15:29:38.171
117, 62.19, 91.16, 0.00, 10.60, 0.000, 0.000, 0.000, 15:29:38.186
118, 61.51, 105.32, 0.00, 7.41, 0.000, 0.000, 0.000, 15:29:38.186
119, 74.64, 126.09, 0.00, 7.93, 0.000, 0.000, 0.000, 15:29:38.187
120, 78.69, 125.25, 0.00, 8.66, 0.000, 0.000, 0.000, 15:29:38.187
121, 75.90, 120.12, 0.00, 3.29, 0.000, 0.000, 0.000, 15:29:38.201
122, 79.51, 122.26, 0.00, 9.82, 0.000, 0.000, 0.000, 15:29:38.203
123, 80.27, 122.57, 0.00, 6.28, 0.000, 0.000, 0.000, 15:29:38.216
124, 78.31, 116.83, 0.00, 9.25, 0.000, 0.000, 0.000, 15:29:38.216
125, 69.01, 112.16, 0.00, 6.27, 0.000, 0.000, 0.000, 15:29:38.216
126, 63.08, 89.64, 0.00, 10.05, 0.000, 0.000, 0.000, 15:29:38.217
127, 61.43, 88.37, 0.00, 13.49, 0.000, 0.000, 0.000, 15:29:38.231
128, 61.92, 84.37, 0.00, 8.45, 0.000, 0.000, 0.000, 15:29:38.231
129, 59.91, 86.87, 0.00, 8.80, 0.000, 0.000, 0.000, 15:29:38.246
130, 66.15, 95.27, 0.00, 8.18, 0.000, 0.000, 0.000, 15:29:38.247
131, 72.05, 107.74, 0.00, 7.32, 0.000, 0.000, 0.000, 15:29:38.247
132, 73.80, 110.67, 0.00, 9.32, 0.000, 0.000, 0.000, 15:29:38.247
133, 75.39, 117.48, 0.00, 11.05, 0.000, 0.000, 0.000, 15:29:38.261
134, 79.41, 128.65, 0.00, 6.42, 0.000, 0.000, 0.000, 15:29:38.261
135, 80.44, 133.25, 0.00, 7.91, 0.000, 0.000, 0.000, 15:29:38.276
136, 78.19, 127.94, 0.00, 8.47, 0.000, 0.000, 0.000, 15:29:38.277
137, 76.52, 121.80, 0.00, 9.51, 0.000, 0.000, 0.000, 15:29:38.277
138, 80.41, 127.52, 0.00, 8.35, 0.000, 0.000, 0.000, 15:29:38.277
139, 79.66, 123.57, 0.00, 10.12, 0.000, 0.000, 0.000, 15:29:38.291
140, 78.12, 115.88, 0.00, 6.36, 0.000, 0.000, 0.000, 15:29:38.291
141, 74.20, 117.28, 0.00, 8.98, 0.000, 0.000, 0.000, 15:29:38.307
142, 80.16, 122.78, 0.00, 6.12, 0.000, 0.000, 0.000, 15:29:38.307
143, 84.26, 117.05, 0.00, 8.52, 0.000, 0.000, 0.000, 15:29:38.308
144, 84.13, 113.03, 0.00, 8.43, 0.000, 0.000, 0.000, 15:29:38.308
145, 77.14, 101.93, 0.00, 9.09, 0.000, 0.000, 0.000, 15:29:38.322
146, 72.86, 96.01, 0.00, 6.72, 0.000, 0.000, 0.000, 15:29:38.322
147, 76.98, 98.98, 0.00, 6.88, 0.000, 0.000, 0.000, 15:29:38.336
148, 76.42, 92.60, 0.00, 9.88, 0.000, 0.000, 0.000, 15:29:38.336
149, 70.04, 94.42, 0.00, 7.83, 0.000, 0.000, 0.000, 15:29:38.336
150, 75.36, 102.19, 0.00, 6.85, 0.000, 0.000, 0.000, 15:29:38.337
151, 78.50, 104.25, 0.00, 9.26, 0.000, 0.000, 0.000, 15:29:38.351
152, 72.60, 99.37, 0.00, 11.02, 0.000, 0.000, 0.000, 15:29:38.352
153, 71.59, 99.92, 0.00, 6.10, 0.000, 0.000, 0.000, 15:29:38.366
154, 74.31, 103.52, 0.00, 8.57, 0.000, 0.000, 0.000, 15:29:38.366
155, 76.41, 105.48, 0.00, 11.20, 0.000, 0.000, 0.000, 15:29:38.366
156, 74.28, 104.32, 0.00, 5.62, 0.000, 0.000, 0.000, 15:29:38.366
157, 72.51, 108.44, 0.00, 12.44, 0.000, 0.000, 0.000, 15:29:38.381
158, 76.88, 110.52, 0.00, 9.22, 0.000, 0.000, 0.000, 15:29:38.381
159, 79.69, 117.83, 0.00, 9.12, 0.000, 0.000, 0.000, 15:29:38.396
160, 81.19, 123.58, 0.00, 7.66, 0.000, 0.000, 0.000, 15:29:38.396
161, 77.98, 121.72, 0.00, 7.90, 0.000, 0.000, 0.000, 15:29:38.396
162, 83.77, 124.58, 0.00, 7.13, 0.000, 0.000, 0.000, 15:29:38.396
163, 83.37, 123.32, 0.00, 5.25, 0.000, 0.000, 0.000, 15:29:38.411
164, 76.58, 110.89, 0.00, 7.13, 0.000, 0.000, 0.000, 15:29:38.411
165, 71.38, 97.73, 0.00, 11.62, 0.000, 0.000, 0.000, 15:29:38.426
166, 72.94, 104.96, 0.00, 9.95, 0.000, 0.000, 0.000, 15:29:38.426
167, 75.05, 110.22, 0.00, 2.33, 0.000, 0.000, 0.000, 15:29:38.426
168, 70.77, 111.52, 0.00, 9.43, 0.000, 0.000, 0.000, 15:29:38.426
169, 72.75, 108.27, 0.00, 13.56, 0.000, 0.000, 0.000, 15:29:38.441
170, 72.72, 108.84, 0.00, 5.98, 0.000, 0.000, 0.000, 15:29:38.441
171, 78.46, 119.80, 0.00, 6.69, 0.000, 0.000, 0.000, 15:29:38.456
172, 77.70, 125.63, 0.00, 10.57, 0.000, 0.000, 0.000, 15:29:38.456
173, 79.03, 121.05, 0.00, 8.62, 0.000, 0.000, 0.000, 15:29:38.456
174, 82.74, 124.70, 0.00, 10.07, 0.000, 0.000, 0.000, 15:29:38.457
175, 83.75, 123.47, 0.00, 10.29, 0.000, 0.000, 0.000, 15:29:38.471
176, 80.28, 120.18, 0.00, 5.44, 0.000, 0.000, 0.000, 15:29:38.471
177, 76.85, 123.65, 0.00, 14.01, 0.000, 0.000, 0.000, 15:29:38.486
178, 84.05, 125.64, 0.00, 12.04, 0.000, 0.000, 0.000, 15:29:38.486
179, 81.61, 121.19, 0.00, 10.71, 0.000, 0.000, 0.000, 15:29:38.487
180, 77.27, 120.41, 0.00, 9.80, 0.000, 0.000, 0.000, 15:29:38.487
181, 78.97, 122.13, 0.00, 8.25, 0.000, 0.000, 0.000, 15:29:38.512
182, 80.64, 123.02, 0.00, 10.25, 0.000, 0.000, 0.000, 15:29:38.512
183, 79.31, 123.47, 0.00, 8.63, 0.000, 0.000, 0.000, 15:29:38.517
184, 74.83, 118.08, 0.00, 8.28, 0.000, 0.000, 0.000, 15:29:38.517
185, 69.84, 113.66, 0.00, 9.61, 0.000, 0.000, 0.000, 15:29:38.517
186, 69.39, 112.69, 0.00, 9.07, 0.000, 0.000, 0.000, 15:29:38.518
187, 72.92, 122.90, 0.00, 8.29, 0.000, 0.000, 0.000, 15:29:38.531
188, 71.62, 120.52, 0.00, 7.87, 0.000, 0.000, 0.000, 15:29:38.532
189, 71.63, 123.04, 0.00, 10.71, 0.000, 0.000, 0.000, 15:29:38.546
190, 73.00, 124.43, 0.00, 8.42, 0.000, 0.000, 0.000, 15:29:38.546
191, 71.86, 126.51, 0.00, 9.64, 0.000, 0.000, 0.000, 15:29:38.547
192, 69.90, 118.84, 0.00, 8.04, 0.000, 0.000, 0.000, 15:29:38.547
193, 67.23, 122.93, 0.00, 7.98, 0.000, 0.000, 0.000, 15:29:38.561
194, 68.36, 121.03, 0.00, 11.18, 0.000, 0.000, 0.000, 15:29:38.561
195, 74.99, 126.21, 0.00, 10.55, 0.000, 0.000, 0.000, 15:29:38.575
196, 70.80, 121.23, 0.00, 8.04, 0.000, 0.000, 0.000, 15:29:38.576
197, 62.32, 110.50, 0.00, 6.08, 0.000, 0.000, 0.000, 15:29:38.576
198, 58.45, 99.14, 0.00, 6.39, 0.000, 0.000, 0.000, 15:29:38.576
199, 57.68, 87.54, 0.00, 8.01, 0.000, 0.000, 0.000, 15:29:38.591
200, 57.39, 89.95, 0.00, 4.28, 0.000, 0.000, 0.000, 15:29:38.591
0, 56.97, 89.96, 0.00, 9.62, 0.000, 0.000, 0.000, 15:29:38.592
1, 61.71, 100.97, 0.00, 7.83, 0.000, 0.000, 0.000, 15:29:38.607
2, 60.99, 105.72, 0.00, 11.47, 0.000, 0.000, 0.000, 15:29:38.607
3, 70.13, 119.76, 0.00, 8.71, 0.000, 0.000, 0.000, 15:29:38.621
4, 71.33, 128.18, 0.00, 11.40, 0.000, 0.000, 0.000, 15:29:38.621
5, 71.26, 133.05, 0.00, 9.52, 0.000, 0.000, 0.000, 15:29:38.621
6, 73.72, 129.49, 0.00, 11.45, 0.000, 0.000, 0.000, 15:29:38.621
7, 71.54, 124.69, 0.00, 11.08, 0.000, 0.000, 0.000, 15:29:38.636
8, 66.77, 119.74, 0.00, 12.02, 0.000, 0.000, 0.000, 15:29:38.636
9, 69.84, 128.87, 0.00, 7.70, 0.000, 0.000, 0.000, 15:29:38.651
10, 77.34, 125.90, 0.00, 12.06, 0.000, 0.000, 0.000, 15:29:38.651
11, 70.00, 115.36, 0.00, 5.11, 0.000, 0.000, 0.000, 15:29:38.651
12, 65.43, 120.69, 0.00, 10.33, 0.000, 0.000, 0.000, 15:29:38.651
13, 65.38, 123.82, 0.00, 11.17, 0.000, 0.000, 0.000, 15:29:38.666
14, 68.37, 122.20, 0.00, 8.16, 0.000, 0.000, 0.000, 15:29:38.666
15, 69.45, 117.90, 0.00, 11.15, 0.000, 0.000, 0.000, 15:29:38.683
16, 61.92, 98.52, 0.00, 6.57, 0.000, 0.000, 0.000, 15:29:38.683
17, 56.08, 82.89, 0.00, 7.25, 0.000, 0.000, 0.000, 15:29:38.683
18, 56.09, 85.11, 0.00, 9.48, 0.000, 0.000, 0.000, 15:29:38.683
19, 56.93, 82.28, 0.00, 12.68, 0.000, 0.000, 0.000, 15:29:38.695
20, 59.01, 83.66, 0.00, 8.61, 0.000, 0.000, 0.000, 15:29:38.695
21, 63.52, 92.28, 0.00, 12.02, 0.000, 0.000, 0.000, 15:29:38.711
22, 62.27, 98.63, 0.00, 9.68, 0.000, 0.000, 0.000, 15:29:38.711
23, 67.07, 106.34, 0.00, 9.09, 0.000, 0.000, 0.000, 15:29:38.712
24, 66.42, 106.49, 0.00, 8.51, 0.000, 0.000, 0.000, 15:29:38.712
25, 71.22, 111.75, 0.00, 5.66, 0.000, 0.000, 0.000, 15:29:38.726
26, 73.73, 110.57, 0.00, 5.48, 0.000, 0.000, 0.000, 15:29:38.726
27, 70.33, 112.15, 0.00, 4.30, 0.000, 0.000, 0.000, 15:29:38.740
28, 69.93, 115.50, 0.00, 6.17, 0.000, 0.000, 0.000, 15:29:38.740
29, 79.72, 127.53, 0.00, 9.00, 0.000, 0.000, 0.000, 15:29:38.741
30, 78.31, 128.96, 0.00, 9.09, 0.000, 0.000, 0.000, 15:29:38.741
31, 77.68, 125.21, 0.00, 8.28, 0.000, 0.000, 0.000, 15:29:38.757
32, 71.88, 127.41, 0.00, 9.93, 0.000, 0.000, 0.000, 15:29:38.757
33, 72.08, 128.37, 0.00, 6.56, 0.000, 0.000, 0.000, 15:29:38.771
34, 74.03, 129.01, 0.00, 11.02, 0.000, 0.000, 0.000, 15:29:38.772
35, 72.58, 123.58, 0.00, 9.66, 0.000, 0.000, 0.000, 15:29:38.772
36, 70.66, 125.13, 0.00, 10.41, 0.000, 0.000, 0.000, 15:29:38.772
37, 71.45, 128.46, 0.00, 7.68, 0.000, 0.000, 0.000, 15:29:38.787
38, 73.53, 126.59, 0.00, 5.59, 0.000, 0.000, 0.000, 15:29:38.787
39, 71.84, 124.36, 0.00, 7.55, 0.000, 0.000, 0.000, 15:29:38.801
40, 68.00, 122.26, 0.00, 9.57, 0.000, 0.000, 0.000, 15:29:38.801
41, 70.05, 121.24, 0.00, 7.93, 0.000, 0.000, 0.000, 15:29:38.801
42, 67.91, 113.39, 0.00, 7.89, 0.000, 0.000, 0.000, 15:29:38.801
43, 63.83, 108.69, 0.00, 8.44, 0.000, 0.000, 0.000, 15:29:38.816
44, 51.37, 81.52, 0.00, 11.58, 0.000, 0.000, 0.000, 15:29:38.817
45, 50.46, 82.82, 0.00, 6.72, 0.000, 0.000, 0.000, 15:29:38.831
46, 54.87, 89.17, 0.00, 10.05, 0.000, 0.000, 0.000, 15:29:38.831
47, 48.78, 80.99, 0.00, 4.08, 0.000, 0.000, 0.000, 15:29:38.831
48, 48.61, 86.78, 0.00, 9.64, 0.000, 0.000, 0.000, 15:29:38.831
49, 55.13, 95.41, 0.00, 5.88, 0.000, 0.000, 0.000, 15:29:38.845
50, 61.49, 101.66, 0.00, 8.44, 0.000, 0.000, 0.000, 15:29:38.846
51, 63.40, 113.69, 0.00, 8.80, 0.000, 0.000, 0.000, 15:29:38.861
52, 73.61, 128.75, 0.00, 12.93, 0.000, 0.000, 0.000, 15:29:38.862
53, 72.01, 132.13, 0.00, 11.91, 0.000, 0.000, 0.000, 15:29:38.862
54, 76.81, 131.30, 0.00, 9.22, 0.000, 0.000, 0.000, 15:29:38.862
55, 74.01, 121.86, 0.00, 11.04, 0.000, 0.000, 0.000, 15:29:38.877
56, 68.08, 123.67, 0.00, 8.80, 0.000, 0.000, 0.000, 15:29:38.877
57, 69.23, 122.77, 0.00, 9.88, 0.000, 0.000, 0.000, 15:29:38.891
58, 71.72, 125.25, 0.00, 7.00, 0.000, 0.000, 0.000, 15:29:38.892
59, 63.54, 117.71, 0.00, 10.79, 0.000, 0.000, 0.000, 15:29:38.892
60, 55.71, 101.28, 0.00, 7.83, 0.000, 0.000, 0.000, 15:29:38.893
61, 51.79, 86.27, 0.00, 8.76, 0.000, 0.000, 0.000, 15:29:38.914
62, 54.23, 92.28, 0.00, 8.36, 0.000, 0.000, 0.000, 15:29:38.914
63, 53.48, 93.34, 0.00, 5.83, 0.000, 0.000, 0.000, 15:29:38.921
64, 53.14, 93.95, 0.00, 7.34, 0.000, 0.000, 0.000, 15:29:38.921
65, 53.99, 102.19, 0.00, 7.10, 0.000, 0.000, 0.000, 15:29:38.921
66, 58.77, 109.69, 0.00, 8.93, 0.000, 0.000, 0.000, 15:29:38.921
67, 62.14, 109.42, 0.00, 9.73, 0.000, 0.000, 0.000, 15:29:38.936
68, 62.54, 109.11, 0.00, 6.25, 0.000, 0.000, 0.000, 15:29:38.936
69, 69.63, 131.41, 0.00, 12.34, 0.000, 0.000, 0.000, 15:29:38.951
70, 79.55, 141.55, 0.00, 10.32, 0.000, 0.000, 0.000, 15:29:38.951
71, 76.02, 130.43, 0.00, 7.55, 0.000, 0.000, 0.000, 15:29:38.951
72, 73.85, 133.31, 0.00, 9.30, 0.000, 0.000, 0.000, 15:29:38.951
73, 70.80, 137.71, 0.00, 9.36, 0.000, 0.000, 0.000, 15:29:38.966
74, 73.11, 128.95, 0.00, 6.34, 0.000, 0.000, 0.000, 15:29:38.966
75, 72.19, 130.94, 0.00, 5.93, 0.000, 0.000, 0.000, 15:29:38.981
76, 67.01, 127.83, 0.00, 9.68, 0.000, 0.000, 0.000, 15:29:38.981
77, 66.84, 128.44, 0.00, 6.58, 0.000, 0.000, 0.000, 15:29:38.982
78, 68.68, 129.76, 0.00, 6.45, 0.000, 0.000, 0.000, 15:29:38.982
79, 67.60, 127.32, 0.00, 7.54, 0.000, 0.000, 0.000, 15:29:38.996
80, 67.03, 121.34, 0.00, 7.64, 0.000, 0.000, 0.000, 15:29:38.996
81, 72.17, 128.03, 0.00, 11.26, 0.000, 0.000, 0.000, 15:29:39.011
82, 75.83, 126.83, 0.00, 7.78, 0.000, 0.000, 0.000, 15:29:39.011
83, 71.78, 125.64, 0.00, 5.51, 0.000, 0.000, 0.000, 15:29:39.012
84, 66.93, 123.11, 0.00, 8.77, 0.000, 0.000, 0.000, 15:29:39.012
85, 68.81, 124.70, 0.00, 13.07, 0.000, 0.000, 0.000, 15:29:39.026
86, 62.80, 120.26, 0.00, 9.54, 0.000, 0.000, 0.000, 15:29:39.026
87, 64.28, 111.86, 0.00, 10.22, 0.000, 0.000, 0.000, 15:29:39.041
88, 47.88, 98.83, 0.00, 10.77, 0.000, 0.000, 0.000, 15:29:39.041
89, 49.93, 95.66, 0.00, 10.16, 0.000, 0.000, 0.000, 15:29:39.041
90, 52.38, 94.55, 0.00, 9.44, 0.000, 0.000, 0.000, 15:29:39.041
91, 48.73, 94.71, 0.00, 10.75, 0.000, 0.000, 0.000, 15:29:39.056
92, 47.05, 93.62, 0.00, 9.53, 0.000, 0.000, 0.000, 15:29:39.056
93, 48.72, 105.05, 0.00, 8.16, 0.000, 0.000, 0.000, 15:29:39.070
94, 60.08, 122.52, 0.00, 8.83, 0.000, 0.000, 0.000, 15:29:39.070
95, 60.40, 122.42, 0.00, 9.25, 0.000, 0.000, 0.000, 15:29:39.071
96, 60.40, 126.79, 0.00, 11.24, 0.000, 0.000, 0.000, 15:29:39.072
97, 56.00, 133.43, 0.00, 10.93, 0.000, 0.000, 0.000, 15:29:39.086
98, 57.81, 131.16, 0.00, 10.16, 0.000, 0.000, 0.000, 15:29:39.086
99, 59.50, 125.24, 0.00, 11.30, 0.000, 0.000, 0.000, 15:29:39.100
100, 58.31, 124.61, 0.00, 7.00, 0.000, 0.000, 0.000, 15:29:39.100
101, 57.90, 124.74, 0.00, 5.54, 0.000, 0.000, 0.000, 15:29:39.101
102, 59.91, 126.84, 0.00, 8.77, 0.000, 0.000, 0.000, 15:29:39.101
103, 56.87, 126.63, 0.00, 8.10, 0.000, 0.000, 0.000, 15:29:39.116
104, 55.55, 125.51, 0.00, 10.41, 0.000, 0.000, 0.000, 15:29:39.117
105, 58.49, 128.52, 0.00, 7.37, 0.000, 0.000, 0.000, 15:29:39.131
106, 61.14, 130.54, 0.00, 10.19, 0.000, 0.000, 0.000, 15:29:39.132
107, 55.92, 124.01, 0.00, 7.95, 0.000, 0.000, 0.000, 15:29:39.132
108, 54.83, 126.06, 0.00, 10.08, 0.000, 0.000, 0.000, 15:29:39.132
109, 54.92, 128.90, 0.00, 4.55, 0.000, 0.000, 0.000, 15:29:39.147
110, 56.64, 129.55, 0.00, 8.46, 0.000, 0.000, 0.000, 15:29:39.147
111, 51.97, 124.54, 0.00, 6.54, 0.000, 0.000, 0.000, 15:29:39.161
112, 55.45, 122.67, 0.00, 8.70, 0.000, 0.000, 0.000, 15:29:39.162
113, 54.34, 125.68, 0.00, 10.44, 0.000, 0.000, 0.000, 15:29:39.162
114, 57.50, 130.00, 0.00, 4.74, 0.000, 0.000, 0.000, 15:29:39.162
115, 58.06, 126.35, 0.00, 4.74, 0.000, 0.000, 0.000, 15:29:39.178
116, 54.20, 123.73, 0.00, 8.13, 0.000, 0.000, 0.000, 15:29:39.178
117, 58.79, 125.96, 0.00, 7.68, 0.000, 0.000, 0.000, 15:29:39.190
118, 62.19, 126.14, 0.00, 6.95, 0.000, 0.000, 0.000, 15:29:39.191
119, 56.45, 122.15, 0.00, 9.42, 0.000, 0.000, 0.000, 15:29:39.191
120, 51.40, 118.95, 0.00, 5.14, 0.000, 0.000, 0.000, 15:29:39.192
121, 58.79, 126.78, 0.00, 5.74, 0.000, 0.000, 0.000, 15:29:39.206
122, 60.14, 126.81, 0.00, 5.44, 0.000, 0.000, 0.000, 15:29:39.206
123, 57.98, 122.94, 0.00, 8.29, 0.000, 0.000, 0.000, 15:29:39.221
124, 57.18, 120.76, 0.00, 7.31, 0.000, 0.000, 0.000, 15:29:39.221
125, 55.71, 120.72, 0.00, 7.80, 0.000, 0.000, 0.000, 15:29:39.221
126, 56.74, 126.55, 0.00, 4.81, 0.000, 0.000, 0.000, 15:29:39.221
127, 56.62, 120.22, 0.00, 7.00, 0.000, 0.000, 0.000, 15:29:39.236
128, 54.37, 116.94, 0.00, 8.84, 0.000, 0.000, 0.000, 15:29:39.236
129, 62.33, 124.06, 0.00, 2.58, 0.000, 0.000, 0.000, 15:29:39.250
130, 60.81, 125.30, 0.00, 6.40, 0.000, 0.000, 0.000, 15:29:39.250
131, 56.16, 120.07, 0.00, 7.43, 0.000, 0.000, 0.000, 15:29:39.251
132, 53.17, 116.20, 0.00, 9.70, 0.000, 0.000, 0.000, 15:29:39.251
133, 54.06, 122.97, 0.00, 9.19, 0.000, 0.000, 0.000, 15:29:39.272
134, 56.50, 121.92, 0.00, 8.28, 0.000, 0.000, 0.000, 15:29:39.273
135, 53.97, 119.39, 0.00, 7.98, 0.000, 0.000, 0.000, 15:29:39.280
136, 46.36, 111.37, 0.00, 11.98, 0.000, 0.000, 0.000, 15:29:39.280
137, 46.37, 107.50, 0.00, 6.50, 0.000, 0.000, 0.000, 15:29:39.281
138, 50.79, 111.74, 0.00, 6.66, 0.000, 0.000, 0.000, 15:29:39.281
139, 51.27, 124.12, 0.00, 13.41, 0.000, 0.000, 0.000, 15:29:39.295
140, 51.78, 121.74, 0.00, 11.55, 0.000, 0.000, 0.000, 15:29:39.295
141, 54.74, 130.63, 0.00, 12.51, 0.000, 0.000, 0.000, 15:29:39.311
142, 64.19, 131.14, 0.00, 10.75, 0.000, 0.000, 0.000, 15:29:39.311
143, 56.43, 123.45, 0.00, 10.66, 0.000, 0.000, 0.000, 15:29:39.312
144, 51.37, 127.24, 0.00, 11.68, 0.000, 0.000, 0.000, 15:29:39.312
145, 54.01, 133.81, 0.00, 13.05, 0.000, 0.000, 0.000, 15:29:39.326
146, 61.60, 129.12, 0.00, 11.41, 0.000, 0.000, 0.000, 15:29:39.326
147, 56.15, 125.25, 0.00, 7.43, 0.000, 0.000, 0.000, 15:29:39.341
148, 50.05, 123.12, 0.00, 11.92, 0.000, 0.000, 0.000, 15:29:39.341
149, 54.01, 125.84, 0.00, 9.33, 0.000, 0.000, 0.000, 15:29:39.341
150, 56.58, 131.12, 0.00, 12.49, 0.000, 0.000, 0.000, 15:29:39.341
151, 49.29, 122.82, 0.00, 8.39, 0.000, 0.000, 0.000, 15:29:39.356
152, 47.46, 120.68, 0.00, 9.13, 0.000, 0.000, 0.000, 15:29:39.356
153, 53.17, 125.66, 0.00, 11.38, 0.000, 0.000, 0.000, 15:29:39.371
154, 57.54, 128.72, 0.00, 11.57, 0.000, 0.000, 0.000, 15:29:39.371
155, 55.29, 120.69, 0.00, 14.03, 0.000, 0.000, 0.000, 15:29:39.371
156, 56.10, 118.58, 0.00, 11.88, 0.000, 0.000, 0.000, 15:29:39.371
157, 56.80, 121.71, 0.00, 7.42, 0.000, 0.000, 0.000, 15:29:39.387
158, 58.73, 123.43, 0.00, 6.35, 0.000, 0.000, 0.000, 15:29:39.387
159, 57.98, 120.56, 0.00, 7.06, 0.000, 0.000, 0.000, 15:29:39.401
160, 54.42, 121.28, 0.00, 10.00, 0.000, 0.000, 0.000, 15:29:39.401
161, 51.26, 121.98, 0.00, 7.59, 0.000, 0.000, 0.000, 15:29:39.402
162, 57.13, 120.42, 0.00, 7.54, 0.000, 0.000, 0.000, 15:29:39.402
163, 55.44, 117.44, 0.00, 10.17, 0.000, 0.000, 0.000, 15:29:39.416
164, 49.23, 108.11, 0.00, 13.79, 0.000, 0.000, 0.000, 15:29:39.416
165, 51.30, 100.67, 0.00, 12.71, 0.000, 0.000, 0.000, 15:29:39.432
166, 54.05, 103.04, 0.00, 7.82, 0.000, 0.000, 0.000, 15:29:39.432
167, 53.24, 94.91, 0.00, 10.47, 0.000, 0.000, 0.000, 15:29:39.432
168, 53.85, 97.45, 0.00, 11.89, 0.000, 0.000, 0.000, 15:29:39.432
169, 56.82, 106.08, 0.00, 9.93, 0.000, 0.000, 0.000, 15:29:39.447
170, 62.48, 108.06, 0.00, 7.05, 0.000, 0.000, 0.000, 15:29:39.447
171, 67.55, 115.07, 0.00, 7.27, 0.000, 0.000, 0.000, 15:29:39.461
172, 68.97, 126.36, 0.00, 8.18, 0.000, 0.000, 0.000, 15:29:39.461
173, 71.43, 135.27, 0.00, 8.82, 0.000, 0.000, 0.000, 15:29:39.461
174, 71.87, 135.72, 0.00, 8.08, 0.000, 0.000, 0.000, 15:29:39.461
175, 71.81, 129.77, 0.00, 5.87, 0.000, 0.000, 0.000, 15:29:39.476
176, 65.31, 127.99, 0.00, 7.75, 0.000, 0.000, 0.000, 15:29:39.477
177, 72.45, 134.45, 0.00, 9.21, 0.000, 0.000, 0.000, 15:29:39.491
178, 71.39, 134.14, 0.00, 9.00, 0.000, 0.000, 0.000, 15:29:39.492
179, 68.01, 129.27, 0.00, 7.43, 0.000, 0.000, 0.000, 15:29:39.492
180, 64.93, 125.54, 0.00, 6.60, 0.000, 0.000, 0.000, 15:29:39.492
181, 65.04, 128.13, 0.00, 6.08, 0.000, 0.000, 0.000, 15:29:39.506
182, 65.26, 127.42, 0.00, 6.59, 0.000, 0.000, 0.000, 15:29:39.506
183, 65.62, 123.87, 0.00, 9.15, 0.000, 0.000, 0.000, 15:29:39.521
184, 58.57, 118.05, 0.00, 14.62, 0.000, 0.000, 0.000, 15:29:39.521
185, 60.63, 115.45, 0.00, 6.77, 0.000, 0.000, 0.000, 15:29:39.521
186, 61.94, 115.15, 0.00, 10.41, 0.000, 0.000, 0.000, 15:29:39.521
187, 58.54, 115.08, 0.00, 5.77, 0.000, 0.000, 0.000, 15:29:39.536
188, 53.90, 106.33, 0.00, 5.14, 0.000, 0.000, 0.000, 15:29:39.536
189, 49.53, 102.40, 0.00, 8.03, 0.000, 0.000, 0.000, 15:29:39.551
190, 50.80, 102.54, 0.00, 5.90, 0.000, 0.000, 0.000, 15:29:39.551
191, 50.43, 100.22, 0.00, 7.69, 0.000, 0.000, 0.000, 15:29:39.559
192, 49.54, 101.69, 0.00, 10.58, 0.000, 0.000, 0.000, 15:29:39.559
193, 50.28, 108.36, 0.00, 9.25, 0.000, 0.000, 0.000, 15:29:39.566
194, 53.90, 108.58, 0.00, 4.16, 0.000, 0.000, 0.000, 15:29:39.566
195, 55.27, 109.98, 0.00, 5.39, 0.000, 0.000, 0.000, 15:29:39.582
196, 51.44, 112.74, 0.00, 9.62, 0.000, 0.000, 0.000, 15:29:39.582
197, 58.90, 125.03, 0.00, 5.95, 0.000, 0.000, 0.000, 15:29:39.582
198, 61.77, 125.91, 0.00, 8.75, 0.000, 0.000, 0.000, 15:29:39.582
199, 58.84, 126.33, 0.00, 6.99, 0.000, 0.000, 0.000, 15:29:39.596
200, 55.29, 125.78, 0.00, 1.63, 0.000, 0.000, 0.000, 15:29:39.596
0, 59.92, 131.55, 0.00, 5.63, 0.000, 0.000, 0.000, 15:29:39.596
1, 59.51, 134.51, 0.00, 7.42, 0.000, 0.000, 0.000, 15:29:39.611
2, 59.43, 126.58, 0.00, 8.11, 0.000, 0.000, 0.000, 15:29:39.611
3, 59.02, 128.42, 0.00, 10.35, 0.000, 0.000, 0.000, 15:29:39.626
4, 64.66, 129.37, 0.00, 9.40, 0.000, 0.000, 0.000, 15:29:39.626
5, 66.08, 134.88, 0.00, 8.75, 0.000, 0.000, 0.000, 15:29:39.626
6, 64.89, 132.96, 0.00, 11.65, 0.000, 0.000, 0.000, 15:29:39.626
7, 64.24, 125.03, 0.00, 8.79, 0.000, 0.000, 0.000, 15:29:39.641
8, 64.83, 124.54, 0.00, 8.46, 0.000, 0.000, 0.000, 15:29:39.641
9, 69.43, 129.65, 0.00, 8.16, 0.000, 0.000, 0.000, 15:29:39.656
10, 67.88, 126.52, 0.00, 6.39, 0.000, 0.000, 0.000, 15:29:39.656
11, 63.31, 117.95, 0.00, 11.00, 0.000, 0.000, 0.000, 15:29:39.656
12, 67.15, 123.68, 0.00, 10.10, 0.000, 0.000, 0.000, 15:29:39.656
13, 64.09, 127.99, 0.00, 8.23, 0.000, 0.000, 0.000, 15:29:39.671
14, 66.34, 125.29, 0.00, 3.87, 0.000, 0.000, 0.000, 15:29:39.671
15, 61.66, 121.10, 0.00, 8.90, 0.000, 0.000, 0.000, 15:29:39.686
16, 64.50, 122.59, 0.00, 5.12, 0.000, 0.000, 0.000, 15:29:39.686
17, 62.10, 119.59, 0.00, 9.51, 0.000, 0.000, 0.000, 15:29:39.686
18, 65.64, 121.96, 0.00, 5.92, 0.000, 0.000, 0.000, 15:29:39.686
19, 66.58, 125.31, 0.00, 7.38, 0.000, 0.000, 0.000, 15:29:39.701
20, 67.25, 126.00, 0.00, 12.03, 0.000, 0.000, 0.000, 15:29:39.701
21, 69.30, 131.36, 0.00, 8.43, 0.000, 0.000, 0.000, 15:29:39.716
22, 66.71, 123.26, 0.00, 7.32, 0.000, 0.000, 0.000, 15:29:39.716
23, 62.95, 113.10, 0.00, 7.92, 0.000, 0.000, 0.000, 15:29:39.716
24, 64.15, 118.19, 0.00, 10.17, 0.000, 0.000, 0.000, 15:29:39.716
25, 68.91, 130.97, 0.00, 10.70, 0.000, 0.000, 0.000, 15:29:39.730
26, 68.69, 126.60, 0.00, 8.35, 0.000, 0.000, 0.000, 15:29:39.731
27, 65.12, 120.94, 0.00, 9.30, 0.000, 0.000, 0.000, 15:29:39.747
28, 63.51, 124.99, 0.00, 11.11, 0.000, 0.000, 0.000, 15:29:39.747
29, 69.11, 123.74, 0.00, 5.40, 0.000, 0.000, 0.000, 15:29:39.747
30, 67.27, 121.37, 0.00, 7.00, 0.000, 0.000, 0.000, 15:29:39.747
31, 63.73, 123.50, 0.00, 8.01, 0.000, 0.000, 0.000, 15:29:39.760
32, 66.03, 122.51, 0.00, 10.44, 0.000, 0.000, 0.000, 15:29:39.760
33, 67.87, 123.60, 0.00, 6.20, 0.000, 0.000, 0.000, 15:29:39.776
34, 70.70, 118.60, 0.00, 9.47, 0.000, 0.000, 0.000, 15:29:39.776
35, 61.87, 109.64, 0.00, 3.90, 0.000, 0.000, 0.000, 15:29:39.777
36, 54.96, 94.28, 0.00, 8.15, 0.000, 0.000, 0.000, 15:29:39.777
37, 52.21, 90.08, 0.00, 11.52, 0.000, 0.000, 0.000, 15:29:39.791
38, 51.12, 85.22, 0.00, 8.60, 0.000, 0.000, 0.000, 15:29:39.791
39, 44.84, 87.91, 0.00, 14.97, 0.000, 0.000, 0.000, 15:29:39.806
40, 49.02, 98.28, 0.00, 12.76, 0.000, 0.000, 0.000, 15:29:39.806
41, 52.00, 99.07, 0.00, 5.10, 0.000, 0.000, 0.000, 15:29:39.807
42, 51.37, 95.98, 0.00, 10.92, 0.000, 0.000, 0.000, 15:29:39.807
43, 52.97, 95.77, 0.00, 8.37, 0.000, 0.000, 0.000, 15:29:39.821
44, 58.42, 101.17, 0.00, 5.66, 0.000, 0.000, 0.000, 15:29:39.822
45, 58.83, 102.92, 0.00, 9.24, 0.000, 0.000, 0.000, 15:29:39.836
46, 58.89, 101.72, 0.00, 9.05, 0.000, 0.000, 0.000, 15:29:39.837
47, 54.84, 101.94, 0.00, 10.41, 0.000, 0.000, 0.000, 15:29:39.837
48, 61.38, 118.50, 0.00, 7.78, 0.000, 0.000, 0.000, 15:29:39.837
49, 74.41, 134.94, 0.00, 9.59, 0.000, 0.000, 0.000, 15:29:39.851
50, 71.28, 131.39, 0.00, 8.14, 0.000, 0.000, 0.000, 15:29:39.851
51, 67.72, 131.34, 0.00, 5.93, 0.000, 0.000, 0.000, 15:29:39.865
52, 64.99, 131.09, 0.00, 8.67, 0.000, 0.000, 0.000, 15:29:39.866
53, 66.82, 129.46, 0.00, 4.08, 0.000, 0.000, 0.000, 15:29:39.866
54, 65.02, 125.57, 0.00, 10.19, 0.000, 0.000, 0.000, 15:29:39.866
55, 59.90, 123.81, 0.00, 5.56, 0.000, 0.000, 0.000, 15:29:39.882
56, 59.86, 124.03, 0.00, 6.69, 0.000, 0.000, 0.000, 15:29:39.882
57, 63.76, 126.26, 0.00, 5.39, 0.000, 0.000, 0.000, 15:29:39.896
58, 62.80, 120.37, 0.00, 5.39, 0.000, 0.000, 0.000, 15:29:39.896
59, 61.26, 118.48, 0.00, 7.82, 0.000, 0.000, 0.000, 15:29:39.897
60, 65.61, 129.28, 0.00, 6.87, 0.000, 0.000, 0.000, 15:29:39.897
61, 69.95, 135.57, 0.00, 7.04, 0.000, 0.000, 0.000, 15:29:39.913
62, 69.20, 129.97, 0.00, 8.04, 0.000, 0.000, 0.000, 15:29:39.913
63, 68.83, 127.02, 0.00, 5.73, 0.000, 0.000, 0.000, 15:29:39.926
64, 70.34, 134.96, 0.00, 9.49, 0.000, 0.000, 0.000, 15:29:39.927
65, 73.75, 136.07, 0.00, 4.94, 0.000, 0.000, 0.000, 15:29:39.927
66, 68.99, 125.19, 0.00, 9.26, 0.000, 0.000, 0.000, 15:29:39.927
67, 69.17, 126.36, 0.00, 9.74, 0.000, 0.000, 0.000, 15:29:39.941
68, 68.69, 124.24, 0.00, 10.27, 0.000, 0.000, 0.000, 15:29:39.941
69, 73.43, 125.34, 0.00, 8.10, 0.000, 0.000, 0.000, 15:29:39.958
70, 71.73, 122.30, 0.00, 6.49, 0.000, 0.000, 0.000, 15:29:39.959
71, 68.23, 123.45, 0.00, 6.48, 0.000, 0.000, 0.000, 15:29:39.959
72, 73.25, 123.80, 0.00, 9.39, 0.000, 0.000, 0.000, 15:29:39.959
73, 75.72, 124.47, 0.00, 9.39, 0.000, 0.000, 0.000, 15:29:39.977
74, 67.21, 116.07, 0.00, 5.27, 0.000, 0.000, 0.000, 15:29:39.977
75, 62.24, 95.53, 0.00, 11.40, 0.000, 0.000, 0.000, 15:29:39.986
76, 64.51, 86.71, 0.00, 4.71, 0.000, 0.000, 0.000, 15:29:39.986
77, 61.98, 88.73, 0.00, 9.83, 0.000, 0.000, 0.000, 15:29:39.986
78, 62.62, 89.85, 0.00, 7.93, 0.000, 0.000, 0.000, 15:29:39.986
79, 61.84, 89.68, 0.00, 7.72, 0.000, 0.000, 0.000, 15:29:40.001
80, 64.17, 94.78, 0.00, 5.49, 0.000, 0.000, 0.000, 15:29:40.001
81, 71.00, 117.30, 0.00, 3.24, 0.000, 0.000, 0.000, 15:29:40.016
82, 71.86, 121.28, 0.00, 5.99, 0.000, 0.000, 0.000, 15:29:40.016
83, 68.53, 122.93, 0.00, 7.22, 0.000, 0.000, 0.000, 15:29:40.017
84, 71.15, 131.15, 0.00, 4.83, 0.000, 0.000, 0.000, 15:29:40.017
85, 70.36, 126.97, 0.00, 10.50, 0.000, 0.000, 0.000, 15:29:40.030
86, 72.12, 123.28, 0.00, 9.32, 0.000, 0.000, 0.000, 15:29:40.030
87, 67.37, 126.40, 0.00, 11.25, 0.000, 0.000, 0.000, 15:29:40.046
88, 70.06, 128.37, 0.00, 6.36, 0.000, 0.000, 0.000, 15:29:40.047
89, 71.42, 124.40, 0.00, 7.39, 0.000, 0.000, 0.000, 15:29:40.047
90, 67.88, 120.27, 0.00, 7.91, 0.000, 0.000, 0.000, 15:29:40.047
91, 68.23, 117.50, 0.00, 4.26, 0.000, 0.000, 0.000, 15:29:40.061
92, 67.70, 112.74, 0.00, 8.60, 0.000, 0.000, 0.000, 15:29:40.061
93, 62.68, 95.99, 0.00, 7.39, 0.000, 0.000, 0.000, 15:29:40.076
94, 57.13, 81.18, 0.00, 6.47, 0.000, 0.000, 0.000, 15:29:40.077
95, 55.42, 81.12, 0.00, 7.25, 0.000, 0.000, 0.000, 15:29:40.077
96, 57.39, 92.54, 0.00, 8.62, 0.000, 0.000, 0.000, 15:29:40.077
97, 58.72, 97.65, 0.00, 7.56, 0.000, 0.000, 0.000, 15:29:40.091
98, 51.82, 96.39, 0.00, 8.68, 0.000, 0.000, 0.000, 15:29:40.092
99, 50.20, 100.84, 0.00, 7.58, 0.000, 0.000, 0.000, 15:29:40.106
100, 54.60, 106.56, 0.00, 7.49, 0.000, 0.000, 0.000, 15:29:40.106
101, 57.82, 107.67, 0.00, 9.38, 0.000, 0.000, 0.000, 15:29:40.107
102, 52.65, 109.67, 0.00, 9.42, 0.000, 0.000, 0.000, 15:29:40.107
103, 54.90, 109.40, 0.00, 10.95, 0.000, 0.000, 0.000, 15:29:40.122
104, 60.41, 128.96, 0.00, 12.13, 0.000, 0.000, 0.000, 15:29:40.122
105, 63.64, 134.31, 0.00, 7.67, 0.000, 0.000, 0.000, 15:29:40.136
106, 60.31, 130.21, 0.00, 11.86, 0.000, 0.000, 0.000, 15:29:40.136
107, 57.44, 129.66, 0.00, 5.25, 0.000, 0.000, 0.000, 15:29:40.136
108, 59.79, 133.13, 0.00, 8.97, 0.000, 0.000, 0.000, 15:29:40.137
109, 65.27, 130.85, 0.00, 10.12, 0.000, 0.000, 0.000, 15:29:40.151
110, 62.88, 124.44, 0.00, 8.44, 0.000, 0.000, 0.000, 15:29:40.151
111, 60.22, 123.24, 0.00, 11.75, 0.000, 0.000, 0.000, 15:29:40.165
112, 64.26, 134.63, 0.00, 8.53, 0.000, 0.000, 0.000, 15:29:40.166
113, 66.41, 134.86, 0.00, 11.14, 0.000, 0.000, 0.000, 15:29:40.166
114, 63.89, 121.90, 0.00, 11.75, 0.000, 0.000, 0.000, 15:29:40.166
115, 63.71, 118.99, 0.00, 8.69, 0.000, 0.000, 0.000, 15:29:40.180
116, 61.35, 126.30, 0.00, 8.00, 0.000, 0.000, 0.000, 15:29:40.181
117, 65.11, 125.80, 0.00, 12.86, 0.000, 0.000, 0.000, 15:29:40.195
118, 61.57, 119.42, 0.00, 7.42, 0.000, 0.000, 0.000, 15:29:40.196
119, 59.35, 121.37, 0.00, 8.05, 0.000, 0.000, 0.000, 15:29:40.197
120, 64.57, 127.68, 0.00, 8.65, 0.000, 0.000, 0.000, 15:29:40.197
121, 66.86, 125.49, 0.00, 9.78, 0.000, 0.000, 0.000, 15:29:40.211
122, 63.75, 113.56, 0.00, 8.22, 0.000, 0.000, 0.000, 15:29:40.211
123, 58.01, 101.66, 0.00, 8.43, 0.000, 0.000, 0.000, 15:29:40.226
124, 58.20, 106.60, 0.00, 7.63, 0.000, 0.000, 0.000, 15:29:40.226
125, 56.24, 106.78, 0.00, 11.23, 0.000, 0.000, 0.000, 15:29:40.227
126, 53.31, 99.89, 0.00, 5.41, 0.000, 0.000, 0.000, 15:29:40.227
127, 54.56, 106.79, 0.00, 9.52, 0.000, 0.000, 0.000, 15:29:40.241
128, 53.39, 106.86, 0.00, 8.52, 0.000, 0.000, 0.000, 15:29:40.242
129, 57.70, 114.09, 0.00, 5.23, 0.000, 0.000, 0.000, 15:29:40.257
130, 55.22, 106.75, 0.00, 8.61, 0.000, 0.000, 0.000, 15:29:40.257
131, 46.94, 103.86, 0.00, 3.84, 0.000, 0.000, 0.000, 15:29:40.257
132, 51.63, 114.06, 0.00, 5.79, 0.000, 0.000, 0.000, 15:29:40.258
133, 61.42, 126.57, 0.00, 10.20, 0.000, 0.000, 0.000, 15:29:40.272
134, 59.04, 121.86, 0.00, 5.66, 0.000, 0.000, 0.000, 15:29:40.272
135, 58.12, 124.40, 0.00, 12.11, 0.000, 0.000, 0.000, 15:29:40.286
136, 62.59, 125.05, 0.00, 11.66, 0.000, 0.000, 0.000, 15:29:40.286
137, 66.87, 129.08, 0.00, 12.06, 0.000, 0.000, 0.000, 15:29:40.286
138, 66.21, 135.01, 0.00, 10.81, 0.000, 0.000, 0.000, 15:29:40.286
139, 62.81, 127.26, 0.00, 8.82, 0.000, 0.000, 0.000, 15:29:40.302
140, 64.52, 125.38, 0.00, 6.46, 0.000, 0.000, 0.000, 15:29:40.303
141, 69.27, 132.43, 0.00, 5.70, 0.000, 0.000, 0.000, 15:29:40.317
142, 70.20, 128.65, 0.00, 7.35, 0.000, 0.000, 0.000, 15:29:40.317
143, 67.18, 120.45, 0.00, 8.54, 0.000, 0.000, 0.000, 15:29:40.317
144, 65.99, 122.05, 0.00, 9.37, 0.000, 0.000, 0.000, 15:29:40.317
145, 73.46, 132.85, 0.00, 6.19, 0.000, 0.000, 0.000, 15:29:40.334
146, 66.84, 123.84, 0.00, 8.70, 0.000, 0.000, 0.000, 15:29:40.334
147, 60.61, 107.16, 0.00, 8.32, 0.000, 0.000, 0.000, 15:29:40.346
148, 55.92, 104.77, 0.00, 4.66, 0.000, 0.000, 0.000, 15:29:40.347
149, 60.89, 99.98, 0.00, 7.81, 0.000, 0.000, 0.000, 15:29:40.347
150, 59.48, 99.01, 0.00, 3.94, 0.000, 0.000, 0.000, 15:29:40.348
151, 57.84, 99.82, 0.00, 9.30, 0.000, 0.000, 0.000, 15:29:40.361
152, 59.89, 107.77, 0.00, 9.06, 0.000, 0.000, 0.000, 15:29:40.361
153, 62.27, 116.09, 0.00, 9.14, 0.000, 0.000, 0.000, 15:29:40.377
154, 70.88, 133.16, 0.00, 12.25, 0.000, 0.000, 0.000, 15:29:40.377
155, 72.18, 134.83, 0.00, 10.35, 0.000, 0.000, 0.000, 15:29:40.377
156, 76.35, 142.25, 0.00, 10.30, 0.000, 0.000, 0.000, 15:29:40.377
157, 73.61, 137.09, 0.00, 10.85, 0.000, 0.000, 0.000, 15:29:40.391
158, 70.19, 130.89, 0.00, 10.93, 0.000, 0.000, 0.000, 15:29:40.391
159, 69.32, 131.59, 0.00, 8.81, 0.000, 0.000, 0.000, 15:29:40.406
160, 74.98, 133.56, 0.00, 9.47, 0.000, 0.000, 0.000, 15:29:40.406
161, 70.39, 132.17, 0.00, 14.42, 0.000, 0.000, 0.000, 15:29:40.407
162, 67.96, 127.69, 0.00, 11.99, 0.000, 0.000, 0.000, 15:29:40.407
163, 65.21, 123.27, 0.00, 13.55, 0.000, 0.000, 0.000, 15:29:40.421
164, 60.27, 119.08, 0.00, 9.92, 0.000, 0.000, 0.000, 15:29:40.421
165, 64.12, 120.88, 0.00, 5.94, 0.000, 0.000, 0.000, 15:29:40.436
166, 61.39, 110.83, 0.00, 11.65, 0.000, 0.000, 0.000, 15:29:40.436
167, 57.86, 93.13, 0.00, 7.77, 0.000, 0.000, 0.000, 15:29:40.436
168, 56.22, 99.73, 0.00, 7.90, 0.000, 0.000, 0.000, 15:29:40.436
169, 55.10, 101.53, 0.00, 5.25, 0.000, 0.000, 0.000, 15:29:40.451
170, 51.21, 93.15, 0.00, 7.30, 0.000, 0.000, 0.000, 15:29:40.451
171, 50.93, 94.36, 0.00, 12.60, 0.000, 0.000, 0.000, 15:29:40.465
172, 55.60, 103.07, 0.00, 7.44, 0.000, 0.000, 0.000, 15:29:40.465
173, 59.97, 103.28, 0.00, 7.39, 0.000, 0.000, 0.000, 15:29:40.465
174, 55.05, 97.75, 0.00, 9.71, 0.000, 0.000, 0.000, 15:29:40.466
175, 55.52, 103.70, 0.00, 11.78, 0.000, 0.000, 0.000, 15:29:40.481
176, 59.41, 112.98, 0.00, 7.95, 0.000, 0.000, 0.000, 15:29:40.481
177, 70.87, 134.08, 0.00, 7.34, 0.000, 0.000, 0.000, 15:29:40.496
178, 74.90, 137.14, 0.00, 9.32, 0.000, 0.000, 0.000, 15:29:40.496
179, 70.22, 135.88, 0.00, 7.39, 0.000, 0.000, 0.000, 15:29:40.496
180, 72.56, 141.20, 0.00, 5.85, 0.000, 0.000, 0.000, 15:29:40.496
181, 73.93, 140.77, 0.00, 8.20, 0.000, 0.000, 0.000, 15:29:40.511
182, 70.33, 127.06, 0.00, 7.26, 0.000, 0.000, 0.000, 15:29:40.511
183, 63.26, 117.35, 0.00, 7.05, 0.000, 0.000, 0.000, 15:29:40.526
184, 62.43, 111.59, 0.00, 8.61, 0.000, 0.000, 0.000, 15:29:40.526
185, 60.83, 103.64, 0.00, 8.64, 0.000, 0.000, 0.000, 15:29:40.526
186, 54.77, 100.60, 0.00, 4.57, 0.000, 0.000, 0.000, 15:29:40.527
187, 54.75, 99.35, 0.00, 10.21, 0.000, 0.000, 0.000, 15:29:40.541
188, 57.82, 106.93, 0.00, 10.22, 0.000, 0.000, 0.000, 15:29:40.541
189, 60.34, 109.65, 0.00, 5.79, 0.000, 0.000, 0.000, 15:29:40.556
190, 63.46, 118.81, 0.00, 10.02, 0.000, 0.000, 0.000, 15:29:40.556
191, 61.54, 127.98, 0.00, 6.97, 0.000, 0.000, 0.000, 15:29:40.556
192, 70.20, 138.09, 0.00, 6.14, 0.000, 0.000, 0.000, 15:29:40.557
193, 68.80, 139.60, 0.00, 8.73, 0.000, 0.000, 0.000, 15:29:40.570
194, 63.52, 127.39, 0.00, 8.57, 0.000, 0.000, 0.000, 15:29:40.571
195, 58.43, 125.83, 0.00, 8.25, 0.000, 0.000, 0.000, 15:29:40.586
196, 63.17, 124.25, 0.00, 8.99, 0.000, 0.000, 0.000, 15:29:40.586
197, 61.71, 120.82, 0.00, 8.72, 0.000, 0.000, 0.000, 15:29:40.586
198, 60.12, 115.34, 0.00, 7.80, 0.000, 0.000, 0.000, 15:29:40.586
199, 60.18, 116.05, 0.00, 8.21, 0.000, 0.000, 0.000, 15:29:40.601
200, 62.17, 119.86, 0.00, 4.98, 0.000, 0.000, 0.000, 15:29:40.601
0, 63.54, 121.43, 0.00, 10.43, 0.000, 0.000, 0.000, 15:29:40.602
1, 65.46, 121.82, 0.00, 10.99, 0.000, 0.000, 0.000, 15:29:40.616
2, 62.08, 116.44, 0.00, 7.18, 0.000, 0.000, 0.000, 15:29:40.617
3, 62.91, 121.33, 0.00, 6.69, 0.000, 0.000, 0.000, 15:29:40.631
4, 64.34, 115.59, 0.00, 6.23, 0.000, 0.000, 0.000, 15:29:40.631
5, 52.15, 92.28, 0.00, 7.83, 0.000, 0.000, 0.000, 15:29:40.631
6, 52.04, 90.68, 0.00, 8.19, 0.000, 0.000, 0.000, 15:29:40.632
7, 55.34, 97.20, 0.00, 8.55, 0.000, 0.000, 0.000, 15:29:40.646
8, 56.14, 100.20, 0.00, 13.63, 0.000, 0.000, 0.000, 15:29:40.646
9, 56.39, 102.95, 0.00, 9.75, 0.000, 0.000, 0.000, 15:29:40.661
10, 58.71, 107.55, 0.00, 8.39, 0.000, 0.000, 0.000, 15:29:40.661
11, 62.85, 114.53, 0.00, 8.22, 0.000, 0.000, 0.000, 15:29:40.662
12, 73.59, 135.68, 0.00, 9.07, 0.000, 0.000, 0.000, 15:29:40.662
13, 72.37, 134.50, 0.00, 7.57, 0.000, 0.000, 0.000, 15:29:40.676
14, 67.54, 134.05, 0.00, 2.57, 0.000, 0.000, 0.000, 15:29:40.676
15, 71.06, 136.21, 0.00, 6.93, 0.000, 0.000, 0.000, 15:29:40.692
16, 73.04, 134.88, 0.00, 3.99, 0.000, 0.000, 0.000, 15:29:40.693
17, 65.53, 127.24, 0.00, 13.20, 0.000, 0.000, 0.000, 15:29:40.694
18, 71.69, 122.99, 0.00, 11.47, 0.000, 0.000, 0.000, 15:29:40.694
19, 70.79, 125.83, 0.00, 8.54, 0.000, 0.000, 0.000, 15:29:40.706
20, 74.94, 122.51, 0.00, 7.56, 0.000, 0.000, 0.000, 15:29:40.707
21, 69.92, 117.97, 0.00, 8.75, 0.000, 0.000, 0.000, 15:29:40.722
22, 70.65, 120.71, 0.00, 8.94, 0.000, 0.000, 0.000, 15:29:40.722
23, 73.88, 117.45, 0.00, 5.43, 0.000, 0.000, 0.000, 15:29:40.722
24, 73.52, 119.14, 0.00, 3.19, 0.000, 0.000, 0.000, 15:29:40.722
25, 67.51, 110.28, 0.00, 9.99, 0.000, 0.000, 0.000, 15:29:40.736
26, 55.14, 85.06, 0.00, 9.10, 0.000, 0.000, 0.000, 15:29:40.737
27, 56.61, 86.23, 0.00, 9.58, 0.000, 0.000, 0.000, 15:29:40.751
28, 59.58, 92.00, 0.00, 12.03, 0.000, 0.000, 0.000, 15:29:40.751
29, 54.15, 93.63, 0.00, 7.57, 0.000, 0.000, 0.000, 15:29:40.751
30, 49.14, 94.61, 0.00, 10.58, 0.000, 0.000, 0.000, 15:29:40.751
31, 60.35, 103.81, 0.00, 7.95, 0.000, 0.000, 0.000, 15:29:40.766
32, 61.15, 102.05, 0.00, 11.25, 0.000, 0.000, 0.000, 15:29:40.766
33, 59.42, 97.92, 0.00, 12.61, 0.000, 0.000, 0.000, 15:29:40.781
34, 62.74, 101.96, 0.00, 7.26, 0.000, 0.000, 0.000, 15:29:40.781
35, 64.18, 112.11, 0.00, 7.24, 0.000, 0.000, 0.000, 15:29:40.781
36, 74.54, 129.39, 0.00, 9.52, 0.000, 0.000, 0.000, 15:29:40.781
37, 76.29, 131.43, 0.00, 8.96, 0.000, 0.000, 0.000, 15:29:40.796
38, 73.27, 128.19, 0.00, 13.50, 0.000, 0.000, 0.000, 15:29:40.796
39, 76.29, 131.09, 0.00, 6.20, 0.000, 0.000, 0.000, 15:29:40.812
40, 74.16, 133.29, 0.00, 8.51, 0.000, 0.000, 0.000, 15:29:40.812
41, 70.32, 127.65, 0.00, 7.29, 0.000, 0.000, 0.000, 15:29:40.812
42, 67.71, 127.79, 0.00, 9.47, 0.000, 0.000, 0.000, 15:29:40.812
43, 69.72, 133.50, 0.00, 8.53, 0.000, 0.000, 0.000, 15:29:40.826
44, 69.34, 124.31, 0.00, 5.82, 0.000, 0.000, 0.000, 15:29:40.826
45, 69.56, 121.18, 0.00, 8.34, 0.000, 0.000, 0.000, 15:29:40.841
46, 63.29, 123.96, 0.00, 15.40, 0.000, 0.000, 0.000, 15:29:40.841
47, 62.01, 119.40, 0.00, 11.80, 0.000, 0.000, 0.000, 15:29:40.841
48, 62.10, 119.19, 0.00, 8.07, 0.000, 0.000, 0.000, 15:29:40.841
49, 61.28, 110.49, 0.00, 8.24, 0.000, 0.000, 0.000, 15:29:40.856
50, 53.20, 92.16, 0.00, 7.08, 0.000, 0.000, 0.000, 15:29:40.856
51, 55.60, 95.35, 0.00, 3.27, 0.000, 0.000, 0.000, 15:29:40.871
52, 54.31, 98.69, 0.00, 6.88, 0.000, 0.000, 0.000, 15:29:40.871
53, 50.77, 92.55, 0.00, 4.56, 0.000, 0.000, 0.000, 15:29:40.872
54, 51.03, 89.78, 0.00, 7.12, 0.000, 0.000, 0.000, 15:29:40.872
55, 55.21, 101.23, 0.00, 7.55, 0.000, 0.000, 0.000, 15:29:40.887
56, 59.75, 105.11, 0.00, 6.94, 0.000, 0.000, 0.000, 15:29:40.887
57, 60.52, 104.78, 0.00, 6.99, 0.000, 0.000, 0.000, 15:29:40.901
58, 59.42, 104.07, 0.00, 11.65, 0.000, 0.000, 0.000, 15:29:40.901
59, 63.32, 116.31, 0.00, 9.88, 0.000, 0.000, 0.000, 15:29:40.901
60, 64.10, 129.63, 0.00, 8.87, 0.000, 0.000, 0.000, 15:29:40.901
61, 69.00, 132.82, 0.00, 7.11, 0.000, 0.000, 0.000, 15:29:40.923
62, 68.34, 131.45, 0.00, 9.40, 0.000, 0.000, 0.000, 15:29:40.923
63, 70.20, 135.77, 0.00, 7.16, 0.000, 0.000, 0.000, 15:29:40.931
64, 69.48, 131.84, 0.00, 5.87, 0.000, 0.000, 0.000, 15:29:40.931
65, 66.60, 124.78, 0.00, 10.97, 0.000, 0.000, 0.000, 15:29:40.931
66, 57.21, 121.23, 0.00, 8.15, 0.000, 0.000, 0.000, 15:29:40.931
67, 58.67, 121.39, 0.00, 7.68, 0.000, 0.000, 0.000, 15:29:40.946
68, 56.53, 112.18, 0.00, 6.52, 0.000, 0.000, 0.000, 15:29:40.946
69, 53.68, 97.72, 0.00, 6.95, 0.000, 0.000, 0.000, 15:29:40.961
70, 51.46, 93.64, 0.00, 9.68, 0.000, 0.000, 0.000, 15:29:40.961
71, 50.39, 95.63, 0.00, 7.40, 0.000, 0.000, 0.000, 15:29:40.961
72, 54.43, 103.82, 0.00, 11.11, 0.000, 0.000, 0.000, 15:29:40.961
73, 49.99, 100.83, 0.00, 8.87, 0.000, 0.000, 0.000, 15:29:40.975
74, 50.74, 97.37, 0.00, 7.44, 0.000, 0.000, 0.000, 15:29:40.976
75, 56.04, 104.48, 0.00, 7.60, 0.000, 0.000, 0.000, 15:29:40.991
76, 58.36, 110.12, 0.00, 9.79, 0.000, 0.000, 0.000, 15:29:40.991
77, 58.71, 103.85, 0.00, 12.16, 0.000, 0.000, 0.000, 15:29:40.992
78, 58.91, 105.44, 0.00, 9.07, 0.000, 0.000, 0.000, 15:29:40.992
79, 64.51, 112.65, 0.00, 9.40, 0.000, 0.000, 0.000, 15:29:41.006
80, 74.70, 129.77, 0.00, 10.96, 0.000, 0.000, 0.000, 15:29:41.006
81, 72.20, 131.92, 0.00, 13.92, 0.000, 0.000, 0.000, 15:29:41.021
82, 73.69, 131.94, 0.00, 8.55, 0.000, 0.000, 0.000, 15:29:41.021
83, 73.09, 133.44, 0.00, 7.24, 0.000, 0.000, 0.000, 15:29:41.022
84, 73.63, 129.07, 0.00, 11.05, 0.000, 0.000, 0.000, 15:29:41.022
85, 72.25, 126.15, 0.00, 10.16, 0.000, 0.000, 0.000, 15:29:41.036
86, 71.65, 127.25, 0.00, 12.57, 0.000, 0.000, 0.000, 15:29:41.036
87, 75.85, 130.37, 0.00, 6.94, 0.000, 0.000, 0.000, 15:29:41.051
88, 75.59, 124.30, 0.00, 11.62, 0.000, 0.000, 0.000, 15:29:41.051
89, 64.70, 117.76, 0.00, 7.62, 0.000, 0.000, 0.000, 15:29:41.051
90, 61.22, 120.89, 0.00, 16.36, 0.000, 0.000, 0.000, 15:29:41.051
91, 67.54, 121.20, 0.00, 16.74, 0.000, 0.000, 0.000, 15:29:41.069
92, 69.95, 120.32, 0.00, 10.97, 0.000, 0.000, 0.000, 15:29:41.069
93, 68.15, 115.43, 0.00, 15.94, 0.000, 0.000, 0.000, 15:29:41.081
94, 68.22, 119.88, 0.00, 13.87, 0.000, 0.000, 0.000, 15:29:41.082
95, 70.99, 119.23, 0.00, 10.08, 0.000, 0.000, 0.000, 15:29:41.082
96, 68.63, 117.24, 0.00, 9.34, 0.000, 0.000, 0.000, 15:29:41.083
97, 62.35, 102.87, 0.00, 10.44, 0.000, 0.000, 0.000, 15:29:41.096
98, 56.63, 79.16, 0.00, 6.44, 0.000, 0.000, 0.000, 15:29:41.097
99, 53.40, 83.62, 0.00, 10.28, 0.000, 0.000, 0.000, 15:29:41.111
100, 59.80, 90.04, 0.00, 13.15, 0.000, 0.000, 0.000, 15:29:41.112
101, 51.25, 85.90, 0.00, 8.13, 0.000, 0.000, 0.000, 15:29:41.112
102, 54.25, 88.97, 0.00, 6.74, 0.000, 0.000, 0.000, 15:29:41.112
103, 63.48, 93.86, 0.00, 10.59, 0.000, 0.000, 0.000, 15:29:41.126
104, 60.62, 95.83, 0.00, 7.82, 0.000, 0.000, 0.000, 15:29:41.127
105, 64.54, 106.48, 0.00, 7.68, 0.000, 0.000, 0.000, 15:29:41.141
106, 70.91, 127.24, 0.00, 5.38, 0.000, 0.000, 0.000, 15:29:41.141
107, 71.72, 129.91, 0.00, 10.45, 0.000, 0.000, 0.000, 15:29:41.141
108, 78.81, 124.74, 0.00, 7.58, 0.000, 0.000, 0.000, 15:29:41.142
109, 75.05, 123.13, 0.00, 10.54, 0.000, 0.000, 0.000, 15:29:41.156
110, 73.98, 122.24, 0.00, 7.84, 0.000, 0.000, 0.000, 15:29:41.156
111, 72.92, 130.99, 0.00, 11.13, 0.000, 0.000, 0.000, 15:29:41.171
112, 77.04, 124.74, 0.00, 12.49, 0.000, 0.000, 0.000, 15:29:41.171
113, 73.96, 120.30, 0.00, 9.72, 0.000, 0.000, 0.000, 15:29:41.171
114, 74.64, 126.23, 0.00, 6.42, 0.000, 0.000, 0.000, 15:29:41.171
115, 76.71, 124.48, 0.00, 12.25, 0.000, 0.000, 0.000, 15:29:41.186
116, 76.83, 116.85, 0.00, 11.78, 0.000, 0.000, 0.000, 15:29:41.186
117, 75.30, 111.33, 0.00, 8.27, 0.000, 0.000, 0.000, 15:29:41.201
118, 68.09, 103.83, 0.00, 6.83, 0.000, 0.000, 0.000, 15:29:41.202
119, 66.39, 103.57, 0.00, 9.14, 0.000, 0.000, 0.000, 15:29:41.202
120, 67.30, 102.44, 0.00, 13.27, 0.000, 0.000, 0.000, 15:29:41.202
121, 63.02, 100.97, 0.00, 6.59, 0.000, 0.000, 0.000, 15:29:41.216
122, 55.49, 91.29, 0.00, 9.59, 0.000, 0.000, 0.000, 15:29:41.216
123, 59.07, 93.68, 0.00, 5.54, 0.000, 0.000, 0.000, 15:29:41.231
124, 59.38, 97.22, 0.00, 6.03, 0.000, 0.000, 0.000, 15:29:41.232
125, 51.89, 92.93, 0.00, 6.67, 0.000, 0.000, 0.000, 15:29:41.232
126, 55.22, 90.27, 0.00, 11.63, 0.000, 0.000, 0.000, 15:29:41.232
127, 58.84, 106.03, 0.00, 8.88, 0.000, 0.000, 0.000, 15:29:41.246
128, 62.35, 109.03, 0.00, 6.25, 0.000, 0.000, 0.000, 15:29:41.247
129, 60.55, 106.11, 0.00, 5.36, 0.000, 0.000, 0.000, 15:29:41.262
130, 56.99, 107.99, 0.00, 10.47, 0.000, 0.000, 0.000, 15:29:41.262
131, 64.24, 118.37, 0.00, 8.86, 0.000, 0.000, 0.000, 15:29:41.262
132, 72.41, 133.81, 0.00, 8.34, 0.000, 0.000, 0.000, 15:29:41.262
133, 67.16, 129.18, 0.00, 11.18, 0.000, 0.000, 0.000, 15:29:41.276
134, 67.35, 127.04, 0.00, 8.39, 0.000, 0.000, 0.000, 15:29:41.277
135, 71.02, 133.76, 0.00, 8.90, 0.000, 0.000, 0.000, 15:29:41.291
136, 74.08, 139.51, 0.00, 8.14, 0.000, 0.000, 0.000, 15:29:41.291
137, 65.26, 129.92, 0.00, 9.48, 0.000, 0.000, 0.000, 15:29:41.292
138, 68.59, 128.23, 0.00, 10.27, 0.000, 0.000, 0.000, 15:29:41.292
139, 66.20, 129.68, 0.00, 7.12, 0.000, 0.000, 0.000, 15:29:41.307
140, 70.65, 133.19, 0.00, 9.90, 0.000, 0.000, 0.000, 15:29:41.307
141, 67.35, 125.52, 0.00, 9.42, 0.000, 0.000, 0.000, 15:29:41.321
142, 67.98, 129.39, 0.00, 10.02, 0.000, 0.000, 0.000, 15:29:41.322
143, 69.94, 127.09, 0.00, 7.07, 0.000, 0.000, 0.000, 15:29:41.322
144, 70.38, 125.06, 0.00, 11.03, 0.000, 0.000, 0.000, 15:29:41.322
145, 66.68, 118.81, 0.00, 12.91, 0.000, 0.000, 0.000, 15:29:41.336
146, 67.66, 115.83, 0.00, 9.79, 0.000, 0.000, 0.000, 15:29:41.336
147, 75.24, 120.95, 0.00, 11.33, 0.000, 0.000, 0.000, 15:29:41.351
148, 75.22, 123.50, 0.00, 8.61, 0.000, 0.000, 0.000, 15:29:41.351
149, 68.92, 112.50, 0.00, 12.84, 0.000, 0.000, 0.000, 15:29:41.351
150, 60.90, 93.35, 0.00, 9.15, 0.000, 0.000, 0.000, 15:29:41.351
151, 58.80, 91.00, 0.00, 9.22, 0.000, 0.000, 0.000, 15:29:41.365
152, 56.21, 86.12, 0.00, 11.97, 0.000, 0.000, 0.000, 15:29:41.365
153, 51.90, 85.02, 0.00, 9.96, 0.000, 0.000, 0.000, 15:29:41.381
154, 50.09, 90.61, 0.00, 9.71, 0.000, 0.000, 0.000, 15:29:41.382
155, 57.64, 93.23, 0.00, 10.70, 0.000, 0.000, 0.000, 15:29:41.388
156, 58.11, 97.97, 0.00, 10.68, 0.000, 0.000, 0.000, 15:29:41.389
157, 55.86, 89.84, 0.00, 9.84, 0.000, 0.000, 0.000, 15:29:41.396
158, 52.78, 92.62, 0.00, 9.13, 0.000, 0.000, 0.000, 15:29:41.396
159, 58.19, 99.29, 0.00, 7.92, 0.000, 0.000, 0.000, 15:29:41.411
160, 61.35, 104.02, 0.00, 5.79, 0.000, 0.000, 0.000, 15:29:41.411
161, 58.59, 95.16, 0.00, 6.98, 0.000, 0.000, 0.000, 15:29:41.411
162, 61.90, 102.60, 0.00, 7.64, 0.000, 0.000, 0.000, 15:29:41.412
163, 65.98, 115.51, 0.00, 6.39, 0.000, 0.000, 0.000, 15:29:41.426
164, 68.13, 131.59, 0.00, 6.74, 0.000, 0.000, 0.000, 15:29:41.427
165, 66.81, 128.38, 0.00, 7.28, 0.000, 0.000, 0.000, 15:29:41.443
166, 69.74, 131.29, 0.00, 8.24, 0.000, 0.000, 0.000, 15:29:41.443
167, 74.90, 132.73, 0.00, 9.81, 0.000, 0.000, 0.000, 15:29:41.444
168, 76.79, 129.58, 0.00, 9.78, 0.000, 0.000, 0.000, 15:29:41.444
169, 71.47, 120.93, 0.00, 8.18, 0.000, 0.000, 0.000, 15:29:41.456
170, 72.77, 119.43, 0.00, 11.33, 0.000, 0.000, 0.000, 15:29:41.457
171, 74.05, 124.28, 0.00, 5.43, 0.000, 0.000, 0.000, 15:29:41.471
172, 74.31, 120.85, 0.00, 9.81, 0.000, 0.000, 0.000, 15:29:41.471
173, 65.57, 107.71, 0.00, 7.92, 0.000, 0.000, 0.000, 15:29:41.471
174, 64.22, 103.08, 0.00, 9.23, 0.000, 0.000, 0.000, 15:29:41.472
175, 67.28, 108.42, 0.00, 10.83, 0.000, 0.000, 0.000, 15:29:41.486
176, 66.64, 110.83, 0.00, 5.16, 0.000, 0.000, 0.000, 15:29:41.486
177, 61.11, 95.01, 0.00, 7.16, 0.000, 0.000, 0.000, 15:29:41.501
178, 54.02, 90.44, 0.00, 11.29, 0.000, 0.000, 0.000, 15:29:41.501
179, 59.48, 96.38, 0.00, 10.18, 0.000, 0.000, 0.000, 15:29:41.516
180, 58.78, 101.09, 0.00, 6.14, 0.000, 0.000, 0.000, 15:29:41.516
181, 53.03, 95.52, 0.00, 10.52, 0.000, 0.000, 0.000, 15:29:41.516
182, 47.12, 96.64, 0.00, 8.10, 0.000, 0.000, 0.000, 15:29:41.517
183, 58.35, 105.93, 0.00, 7.38, 0.000, 0.000, 0.000, 15:29:41.531
184, 58.98, 109.49, 0.00, 10.76, 0.000, 0.000, 0.000, 15:29:41.531
185, 57.94, 108.76, 0.00, 7.81, 0.000, 0.000, 0.000, 15:29:41.531
186, 61.37, 112.12, 0.00, 10.28, 0.000, 0.000, 0.000, 15:29:41.531
187, 66.94, 127.00, 0.00, 8.93, 0.000, 0.000, 0.000, 15:29:41.546
188, 68.29, 137.90, 0.00, 7.98, 0.000, 0.000, 0.000, 15:29:41.546
189, 67.74, 133.00, 0.00, 10.69, 0.000, 0.000, 0.000, 15:29:41.561
