%OpenBCI Raw EEG Data
%
%Sample Rate = 200.0 Hz
%First Column = SampleIndex
%Last Column = Timestamp 
%Other Columns = EEG data in microvolts followed by Accel Data (in G) interleaved with Aux Data
0, 39.83, 107.97, 0.00, 0.00, 0.000, 0.000, 0.000, 14:57:07.549
1, 43.31, 112.88, 0.00, 0.00, 0.000, 0.000, 0.000, 14:57:07.590
2, 38.59, 114.29, 0.00, 0.00, 0.000, 0.000, 0.000, 14:57:07.591
3, 41.11, 110.02, 0.00, 0.00, 0.000, 0.000, 0.000, 14:57:07.591
4, 39.05, 107.17, 0.00, 0.00, 0.000, 0.000, 0.000, 14:57:07.592
5, 41.27, 111.31, 0.00, 0.00, 0.000, 0.000, 0.000, 14:57:07.592
6, 44.96, 114.49, 0.00, 0.00, 0.000, 0.000, 0.000, 14:57:07.592
7, 46.07, 112.52, 0.00, 0.00, 0.000, 0.000, 0.000, 14:57:07.592
8, 42.00, 111.43, 0.00, 0.00, 0.000, 0.000, 0.000, 14:57:07.593
9, 42.72, 113.08, 0.00, 0.00, 0.000, 0.000, 0.000, 14:57:07.604
10, 42.18, 116.18, 0.00, 0.00, 0.000, 0.000, 0.000, 14:57:07.605
11, 41.32, 107.48, 0.00, 0.00, 0.000, 0.000, 0.000, 14:57:07.605
12, 42.75, 108.87, 0.00, 0.00, 0.000, 0.000, 0.000, 14:57:07.605
13, 45.23, 109.67, 0.00, 0.00, 0.000, 0.000, 0.000, 14:57:07.620
14, 44.17, 111.13, 0.00, 0.00, 0.000, 0.000, 0.000, 14:57:07.620
15, 40.37, 105.79, 0.00, 0.00, 0.000, 0.000, 0.000, 14:57:07.635
16, 39.67, 108.89, 0.00, 0.00, 0.000, 0.000, 0.000, 14:57:07.635
17, 42.02, 112.56, 0.00, 0.00, 0.000, 0.000, 0.000, 14:57:07.635
18, 44.99, 117.63, 0.00, 0.00, 0.000, 0.000, 0.000, 14:57:07.636
19, 40.42, 114.84, 0.00, 0.00, 0.000, 0.000, 0.000, 14:57:07.650
20, 37.37, 111.00, 0.00, 0.00, 0.000, 0.000, 0.000, 14:57:07.650
21, 39.22, 115.95, 0.00, 0.00, 0.000, 0.000, 0.000, 14:57:07.665
22, 44.81, 117.37, 0.00, 0.00, 0.000, 0.000, 0.000, 14:57:07.665
23, 43.51, 113.50, 0.00, 0.00, 0.000, 0.000, 0.000, 14:57:07.665
24, 41.12, 110.04, 0.00, 0.00, 0.000, 0.000, 0.000, 14:57:07.665
25, 42.37, 114.64, 0.00, 0.00, 0.000, 0.000, 0.000, 14:57:07.680
26, 45.67, 116.04, 0.00, 0.00, 0.000, 0.000, 0.000, 14:57:07.680
27, 40.09, 107.16, 0.00, 0.00, 0.000, 0.000, 0.000, 14:57:07.695
28, 40.26, 109.40, 0.00, 0.00, 0.000, 0.000, 0.000, 14:57:07.695
29, 42.21, 111.60, 0.00, 0.00, 0.000, 0.000, 0.000, 14:57:07.695
30, 42.13, 110.87, 0.00, 0.00, 0.000, 0.000, 0.000, 14:57:07.695
31, 37.90, 109.20, 0.00, 0.00, 0.000, 0.000, 0.000, 14:57:07.710
32, 36.57, 106.50, 0.00, 0.00, 0.000, 0.000, 0.000, 14:57:07.710
33, 36.05, 109.47, 0.00, 0.00, 0.000, 0.000, 0.000, 14:57:07.725
34, 41.04, 108.50, 0.00, 0.00, 0.000, 0.000, 0.000, 14:57:07.726
35, 39.63, 107.28, 0.00, 0.00, 0.000, 0.000, 0.000, 14:57:07.726
36, 39.50, 103.61, 0.00, 0.00, 0.000, 0.000, 0.000, 14:57:07.726
37, 42.09, 112.19, 0.00, 0.00, 0.000, 0.000, 0.000, 14:57:07.739
38, 41.27, 112.04, 0.00, 0.00, 0.000, 0.000, 0.000, 14:57:07.740
39, 43.65, 106.80, 0.00, 0.00, 0.000, 0.000, 0.000, 14:57:07.756
40, 37.67, 105.93, 0.00, 0.00, 0.000, 0.000, 0.000, 14:57:07.756
41, 42.37, 110.03, 0.00, 0.00, 0.000, 0.000, 0.000, 14:57:07.756
42, 45.60, 110.10, 0.00, 0.00, 0.000, 0.000, 0.000, 14:57:07.757
43, 42.35, 105.97, 0.00, 0.00, 0.000, 0.000, 0.000, 14:57:07.770
44, 41.20, 101.72, 0.00, 0.00, 0.000, 0.000, 0.000, 14:57:07.770
45, 40.96, 111.29, 0.00, 0.00, 0.000, 0.000, 0.000, 14:57:07.785
46, 44.61, 111.92, 0.00, 0.00, 0.000, 0.000, 0.000, 14:57:07.786
47, 43.57, 105.57, 0.00, 0.00, 0.000, 0.000, 0.000, 14:57:07.786
48, 39.83, 106.01, 0.00, 0.00, 0.000, 0.000, 0.000, 14:57:07.786
49, 40.67, 107.66, 0.00, 0.00, 0.000, 0.000, 0.000, 14:57:07.800
50, 43.44, 108.01, 0.00, 0.00, 0.000, 0.000, 0.000, 14:57:07.800
51, 42.26, 100.86, 0.00, 0.00, 0.000, 0.000, 0.000, 14:57:07.814
52, 36.99, 103.80, 0.00, 0.00, 0.000, 0.000, 0.000, 14:57:07.815
53, 41.97, 109.31, 0.00, 0.00, 0.000, 0.000, 0.000, 14:57:07.816
54, 43.85, 110.39, 0.00, 0.00, 0.000, 0.000, 0.000, 14:57:07.816
55, 41.60, 107.56, 0.00, 0.00, 0.000, 0.000, 0.000, 14:57:07.831
56, 37.96, 104.98, 0.00, 0.00, 0.000, 0.000, 0.000, 14:57:07.831
57, 38.54, 108.25, 0.00, 0.00, 0.000, 0.000, 0.000, 14:57:07.846
58, 47.37, 104.17, 0.00, 0.00, 0.000, 0.000, 0.000, 14:57:07.847
59, 44.46, 102.96, 0.00, 0.00, 0.000, 0.000, 0.000, 14:57:07.847
60, 43.21, 102.49, 0.00, 0.00, 0.000, 0.000, 0.000, 14:57:07.847
61, 45.96, 106.70, 0.00, 0.00, 0.000, 0.000, 0.000, 14:57:07.860
62, 43.55, 106.30, 0.00, 0.00, 0.000, 0.000, 0.000, 14:57:07.861
63, 42.83, 101.37, 0.00, 0.00, 0.000, 0.000, 0.000, 14:57:07.875
64, 42.77, 100.66, 0.00, 0.00, 0.000, 0.000, 0.000, 14:57:07.875
65, 41.27, 103.24, 0.00, 0.00, 0.000, 0.000, 0.000, 14:57:07.875
66, 43.36, 103.58, 0.00, 0.00, 0.000, 0.000, 0.000, 14:57:07.875
67, 40.00, 101.25, 0.00, 0.00, 0.000, 0.000, 0.000, 14:57:07.890
68, 46.08, 100.18, 0.00, 0.00, 0.000, 0.000, 0.000, 14:57:07.890
69, 43.89, 107.61, 0.00, 0.00, 0.000, 0.000, 0.000, 14:57:07.905
70, 42.04, 106.07, 0.00, 0.00, 0.000, 0.000, 0.000, 14:57:07.905
71, 39.92, 101.96, 0.00, 0.00, 0.000, 0.000, 0.000, 14:57:07.905
72, 38.95, 100.55, 0.00, 0.00, 0.000, 0.000, 0.000, 14:57:07.906
73, 42.05, 106.47, 0.00, 0.00, 0.000, 0.000, 0.000, 14:57:07.927
74, 40.76, 107.95, 0.00, 0.00, 0.000, 0.000, 0.000, 14:57:07.927
75, 39.59, 101.51, 0.00, 0.00, 0.000, 0.000, 0.000, 14:57:07.935
76, 38.89, 100.47, 0.00, 0.00, 0.000, 0.000, 0.000, 14:57:07.935
77, 36.81, 99.72, 0.00, 0.00, 0.000, 0.000, 0.000, 14:57:07.936
78, 41.11, 101.59, 0.00, 0.00, 0.000, 0.000, 0.000, 14:57:07.936
79, 37.98, 101.37, 0.00, 0.00, 0.000, 0.000, 0.000, 14:57:07.950
80, 41.33, 96.75, 0.00, 0.00, 0.000, 0.000, 0.000, 14:57:07.950
81, 39.43, 103.78, 0.00, 0.00, 0.000, 0.000, 0.000, 14:57:07.965
82, 37.50, 106.15, 0.00, 0.00, 0.000, 0.000, 0.000, 14:57:07.965
83, 39.46, 101.01, 0.00, 0.00, 0.000, 0.000, 0.000, 14:57:07.965
84, 35.51, 100.90, 0.00, 0.00, 0.000, 0.000, 0.000, 14:57:07.965
85, 36.87, 104.32, 0.00, 0.00, 0.000, 0.000, 0.000, 14:57:07.980
86, 38.82, 104.03, 0.00, 0.00, 0.000, 0.000, 0.000, 14:57:07.980
87, 38.48, 101.19, 0.00, 0.00, 0.000, 0.000, 0.000, 14:57:07.995
88, 39.07, 102.73, 0.00, 0.00, 0.000, 0.000, 0.000, 14:57:07.995
89, 43.63, 104.73, 0.00, 0.00, 0.000, 0.000, 0.000, 14:57:07.996
90, 41.59, 105.53, 0.00, 0.00, 0.000, 0.000, 0.000, 14:57:07.996
91, 38.78, 102.47, 0.00, 0.00, 0.000, 0.000, 0.000, 14:57:08.011
92, 38.75, 102.26, 0.00, 0.00, 0.000, 0.000, 0.000, 14:57:08.012
93, 39.37, 105.67, 0.00, 0.00, 0.000, 0.000, 0.000, 14:57:08.026
94, 40.55, 105.30, 0.00, 0.00, 0.000, 0.000, 0.000, 14:57:08.027
95, 38.50, 102.83, 0.00, 0.00, 0.000, 0.000, 0.000, 14:57:08.027
96, 37.40, 102.69, 0.00, 0.00, 0.000, 0.000, 0.000, 14:57:08.028
97, 40.64, 106.74, 0.00, 0.00, 0.000, 0.000, 0.000, 14:57:08.042
98, 42.54, 108.15, 0.00, 0.00, 0.000, 0.000, 0.000, 14:57:08.042
99, 43.44, 106.52, 0.00, 0.00, 0.000, 0.000, 0.000, 14:57:08.055
100, 42.36, 103.34, 0.00, 0.00, 0.000, 0.000, 0.000, 14:57:08.055
101, 40.38, 102.68, 0.00, 0.00, 0.000, 0.000, 0.000, 14:57:08.056
102, 50.37, 103.55, 0.00, 0.00, 0.000, 0.000, 0.000, 14:57:08.056
103, 47.08, 104.59, 0.00, 0.00, 0.000, 0.000, 0.000, 14:57:08.070
104, 46.04, 98.96, 0.00, 0.00, 0.000, 0.000, 0.000, 14:57:08.070
105, 48.00, 103.32, 0.00, 0.00, 0.000, 0.000, 0.000, 14:57:08.085
106, 45.78, 109.36, 0.00, 0.00, 0.000, 0.000, 0.000, 14:57:08.086
107, 42.29, 102.49, 0.00, 0.00, 0.000, 0.000, 0.000, 14:57:08.086
108, 46.69, 102.93, 0.00, 0.00, 0.000, 0.000, 0.000, 14:57:08.086
109, 46.75, 106.42, 0.00, 0.00, 0.000, 0.000, 0.000, 14:57:08.100
110, 49.31, 104.87, 0.00, 0.00, 0.000, 0.000, 0.000, 14:57:08.100
111, 46.96, 102.15, 0.00, 0.00, 0.000, 0.000, 0.000, 14:57:08.115
112, 44.65, 99.44, 0.00, 0.00, 0.000, 0.000, 0.000, 14:57:08.115
113, 47.82, 103.61, 0.00, 0.00, 0.000, 0.000, 0.000, 14:57:08.116
114, 49.96, 104.21, 0.00, 0.00, 0.000, 0.000, 0.000, 14:57:08.116
115, 48.08, 101.72, 0.00, 0.00, 0.000, 0.000, 0.000, 14:57:08.130
116, 47.35, 101.55, 0.00, 0.00, 0.000, 0.000, 0.000, 14:57:08.131
117, 46.10, 105.88, 0.00, 0.00, 0.000, 0.000, 0.000, 14:57:08.145
118, 45.92, 105.49, 0.00, 0.00, 0.000, 0.000, 0.000, 14:57:08.145
119, 46.86, 100.70, 0.00, 0.00, 0.000, 0.000, 0.000, 14:57:08.146
120, 48.81, 101.29, 0.00, 0.00, 0.000, 0.000, 0.000, 14:57:08.146
121, 47.16, 102.69, 0.00, 0.00, 0.000, 0.000, 0.000, 14:57:08.160
122, 50.16, 103.25, 0.00, 0.00, 0.000, 0.000, 0.000, 14:57:08.160
123, 47.88, 103.17, 0.00, 0.00, 0.000, 0.000, 0.000, 14:57:08.176
124, 45.47, 101.72, 0.00, 0.00, 0.000, 0.000, 0.000, 14:57:08.177
125, 48.33, 103.39, 0.00, 0.00, 0.000, 0.000, 0.000, 14:57:08.177
126, 51.12, 105.71, 0.00, 0.00, 0.000, 0.000, 0.000, 14:57:08.177
127, 49.04, 101.37, 0.00, 0.00, 0.000, 0.000, 0.000, 14:57:08.190
128, 42.81, 100.22, 0.00, 0.00, 0.000, 0.000, 0.000, 14:57:08.190
129, 45.52, 105.31, 0.00, 0.00, 0.000, 0.000, 0.000, 14:57:08.205
130, 43.57, 106.51, 0.00, 0.00, 0.000, 0.000, 0.000, 14:57:08.205
131, 40.90, 100.29, 0.00, 0.00, 0.000, 0.000, 0.000, 14:57:08.206
132, 43.19, 100.26, 0.00, 0.00, 0.000, 0.000, 0.000, 14:57:08.206
133, 43.95, 102.56, 0.00, 0.00, 0.000, 0.000, 0.000, 14:57:08.220
134, 43.50, 104.03, 0.00, 0.00, 0.000, 0.000, 0.000, 14:57:08.220
135, 40.36, 103.32, 0.00, 0.00, 0.000, 0.000, 0.000, 14:57:08.235
136, 43.41, 103.01, 0.00, 0.00, 0.000, 0.000, 0.000, 14:57:08.235
137, 45.13, 105.37, 0.00, 0.00, 0.000, 0.000, 0.000, 14:57:08.236
138, 43.48, 110.43, 0.00, 0.00, 0.000, 0.000, 0.000, 14:57:08.236
139, 51.44, 105.80, 0.00, 0.00, 0.000, 0.000, 0.000, 14:57:08.250
140, 44.95, 104.21, 0.00, 0.00, 0.000, 0.000, 0.000, 14:57:08.253
141, 50.30, 107.29, 0.00, 0.00, 0.000, 0.000, 0.000, 14:57:08.265
142, 50.89, 107.03, 0.00, 0.00, 0.000, 0.000, 0.000, 14:57:08.265
143, 48.60, 104.58, 0.00, 0.00, 0.000, 0.000, 0.000, 14:57:08.265
144, 41.42, 104.07, 0.00, 0.00, 0.000, 0.000, 0.000, 14:57:08.266
145, 45.97, 105.20, 0.00, 0.00, 0.000, 0.000, 0.000, 14:57:08.280
146, 44.61, 106.77, 0.00, 0.00, 0.000, 0.000, 0.000, 14:57:08.280
147, 47.40, 101.92, 0.00, 0.00, 0.000, 0.000, 0.000, 14:57:08.295
148, 47.04, 106.88, 0.00, 0.00, 0.000, 0.000, 0.000, 14:57:08.295
149, 46.15, 111.42, 0.00, 0.00, 0.000, 0.000, 0.000, 14:57:08.295
150, 46.61, 107.89, 0.00, 0.00, 0.000, 0.000, 0.000, 14:57:08.295
151, 46.10, 106.16, 0.00, 0.00, 0.000, 0.000, 0.000, 14:57:08.311
152, 45.43, 103.55, 0.00, 0.00, 0.000, 0.000, 0.000, 14:57:08.311
153, 42.58, 106.45, 0.00, 0.00, 0.000, 0.000, 0.000, 14:57:08.325
154, 43.30, 107.35, 0.00, 0.00, 0.000, 0.000, 0.000, 14:57:08.325
155, 40.64, 98.73, 0.00, 0.00, 0.000, 0.000, 0.000, 14:57:08.332
156, 44.26, 99.09, 0.00, 0.00, 0.000, 0.000, 0.000, 14:57:08.332
157, 45.80, 101.19, 0.00, 0.00, 0.000, 0.000, 0.000, 14:57:08.340
158, 46.34, 103.72, 0.00, 0.00, 0.000, 0.000, 0.000, 14:57:08.340
159, 46.23, 100.90, 0.00, 0.00, 0.000, 0.000, 0.000, 14:57:08.355
160, 40.79, 97.92, 0.00, 0.00, 0.000, 0.000, 0.000, 14:57:08.355
161, 38.96, 101.20, 0.00, 0.00, 0.000, 0.000, 0.000, 14:57:08.355
162, 41.15, 105.12, 0.00, 0.00, 0.000, 0.000, 0.000, 14:57:08.355
163, 41.69, 100.27, 0.00, 0.00, 0.000, 0.000, 0.000, 14:57:08.369
164, 40.36, 101.50, 0.00, 0.00, 0.000, 0.000, 0.000, 14:57:08.370
165, 43.34, 106.27, 0.00, 0.00, 0.000, 0.000, 0.000, 14:57:08.385
166, 45.27, 105.64, 0.00, 0.00, 0.000, 0.000, 0.000, 14:57:08.385
167, 46.78, 100.26, 0.00, 0.00, 0.000, 0.000, 0.000, 14:57:08.386
168, 41.70, 101.20, 0.00, 0.00, 0.000, 0.000, 0.000, 14:57:08.386
169, 46.83, 106.32, 0.00, 0.00, 0.000, 0.000, 0.000, 14:57:08.401
170, 45.05, 110.88, 0.00, 0.00, 0.000, 0.000, 0.000, 14:57:08.401
171, 43.21, 103.39, 0.00, 0.00, 0.000, 0.000, 0.000, 14:57:08.415
172, 40.27, 102.39, 0.00, 0.00, 0.000, 0.000, 0.000, 14:57:08.415
173, 41.68, 104.44, 0.00, 0.00, 0.000, 0.000, 0.000, 14:57:08.415
174, 44.25, 107.08, 0.00, 0.00, 0.000, 0.000, 0.000, 14:57:08.416
175, 41.77, 104.08, 0.00, 0.00, 0.000, 0.000, 0.000, 14:57:08.431
176, 40.88, 103.63, 0.00, 0.00, 0.000, 0.000, 0.000, 14:57:08.432
177, 44.00, 105.68, 0.00, 0.00, 0.000, 0.000, 0.000, 14:57:08.460
178, 46.20, 103.05, 0.00, 0.00, 0.000, 0.000, 0.000, 14:57:08.460
179, 43.13, 103.50, 0.00, 0.00, 0.000, 0.000, 0.000, 14:57:08.460
180, 42.41, 95.87, 0.00, 0.00, 0.000, 0.000, 0.000, 14:57:08.460
181, 40.48, 99.67, 0.00, 0.00, 0.000, 0.000, 0.000, 14:57:08.461
182, 44.39, 99.29, 0.00, 0.00, 0.000, 0.000, 0.000, 14:57:08.461
183, 43.71, 96.97, 0.00, 0.00, 0.000, 0.000, 0.000, 14:57:08.462
184, 41.70, 96.75, 0.00, 0.00, 0.000, 0.000, 0.000, 14:57:08.462
185, 41.60, 98.19, 0.00, 0.00, 0.000, 0.000, 0.000, 14:57:08.475
186, 42.51, 98.44, 0.00, 0.00, 0.000, 0.000, 0.000, 14:57:08.475
187, 40.34, 97.39, 0.00, 0.00, 0.000, 0.000, 0.000, 14:57:08.490
188, 40.06, 92.96, 0.00, 0.00, 0.000, 0.000, 0.000, 14:57:08.490
189, 42.72, 98.74, 0.00, 0.00, 0.000, 0.000, 0.000, 14:57:08.505
190, 45.98, 101.01, 0.00, 0.00, 0.000, 0.000, 0.000, 14:57:08.506
191, 44.48, 97.87, 0.00, 0.00, 0.000, 0.000, 0.000, 14:57:08.506
192, 47.56, 94.83, 0.00, 0.00, 0.000, 0.000, 0.000, 14:57:08.506
193, 46.74, 98.51, 0.00, 0.00, 0.000, 0.000, 0.000, 14:57:08.520
194, 50.28, 98.32, 0.00, 0.00, 0.000, 0.000, 0.000, 14:57:08.521
195, 49.41, 97.88, 0.00, 0.00, 0.000, 0.000, 0.000, 14:57:08.535
196, 44.81, 95.28, 0.00, 0.00, 0.000, 0.000, 0.000, 14:57:08.536
197, 46.18, 93.52, 0.00, 0.00, 0.000, 0.000, 0.000, 14:57:08.536
198, 44.58, 99.39, 0.00, 0.00, 0.000, 0.000, 0.000, 14:57:08.537
199, 44.76, 93.34, 0.00, 0.00, 0.000, 0.000, 0.000, 14:57:08.550
200, 38.59, 94.18, 0.00, 0.00, 0.000, 0.000, 0.000, 14:57:08.550
0, 40.62, 95.75, 0.00, 0.00, 0.000, 0.000, 0.000, 14:57:08.551
1, 42.94, 99.60, 0.00, 0.00, 0.000, 0.000, 0.000, 14:57:08.565
2, 43.89, 92.99, 0.00, 0.00, 0.000, 0.000, 0.000, 14:57:08.565
3, 41.31, 92.79, 0.00, 0.00, 0.000, 0.000, 0.000, 14:57:08.579
4, 40.80, 95.27, 0.00, 0.00, 0.000, 0.000, 0.000, 14:57:08.580
5, 39.49, 98.89, 0.00, 0.00, 0.000, 0.000, 0.000, 14:57:08.580
6, 39.49, 94.30, 0.00, 0.00, 0.000, 0.000, 0.000, 14:57:08.580
7, 39.51, 94.51, 0.00, 0.00, 0.000, 0.000, 0.000, 14:57:08.594
8, 36.91, 98.82, 0.00, 0.00, 0.000, 0.000, 0.000, 14:57:08.595
9, 39.90, 102.56, 0.00, 0.00, 0.000, 0.000, 0.000, 14:57:08.610
10, 39.91, 99.08, 0.00, 0.00, 0.000, 0.000, 0.000, 14:57:08.610
11, 35.95, 98.92, 0.00, 0.00, 0.000, 0.000, 0.000, 14:57:08.610
12, 38.20, 100.41, 0.00, 0.00, 0.000, 0.000, 0.000, 14:57:08.610
13, 40.51, 102.78, 0.00, 0.00, 0.000, 0.000, 0.000, 14:57:08.626
14, 34.88, 95.86, 0.00, 0.00, 0.000, 0.000, 0.000, 14:57:08.627
15, 34.23, 98.25, 0.00, 0.00, 0.000, 0.000, 0.000, 14:57:08.640
16, 36.80, 99.36, 0.00, 0.00, 0.000, 0.000, 0.000, 14:57:08.640
17, 36.12, 105.07, 0.00, 0.00, 0.000, 0.000, 0.000, 14:57:08.640
18, 34.88, 98.65, 0.00, 0.00, 0.000, 0.000, 0.000, 14:57:08.641
19, 34.63, 96.87, 0.00, 0.00, 0.000, 0.000, 0.000, 14:57:08.655
20, 35.72, 98.29, 0.00, 0.00, 0.000, 0.000, 0.000, 14:57:08.655
21, 36.88, 100.71, 0.00, 0.00, 0.000, 0.000, 0.000, 14:57:08.670
22, 35.60, 98.63, 0.00, 0.00, 0.000, 0.000, 0.000, 14:57:08.670
23, 33.74, 98.58, 0.00, 0.00, 0.000, 0.000, 0.000, 14:57:08.670
24, 37.85, 103.35, 0.00, 0.00, 0.000, 0.000, 0.000, 14:57:08.670
25, 37.33, 100.82, 0.00, 0.00, 0.000, 0.000, 0.000, 14:57:08.685
26, 35.85, 102.62, 0.00, 0.00, 0.000, 0.000, 0.000, 14:57:08.685
27, 34.27, 98.27, 0.00, 0.00, 0.000, 0.000, 0.000, 14:57:08.701
28, 33.69, 100.75, 0.00, 0.00, 0.000, 0.000, 0.000, 14:57:08.701
29, 39.87, 100.75, 0.00, 0.00, 0.000, 0.000, 0.000, 14:57:08.701
30, 34.85, 97.19, 0.00, 0.00, 0.000, 0.000, 0.000, 14:57:08.701
31, 34.57, 95.34, 0.00, 0.00, 0.000, 0.000, 0.000, 14:57:08.716
32, 36.17, 92.92, 0.00, 0.00, 0.000, 0.000, 0.000, 14:57:08.716
33, 38.34, 94.41, 0.00, 0.00, 0.000, 0.000, 0.000, 14:57:08.731
34, 38.55, 94.89, 0.00, 0.00, 0.000, 0.000, 0.000, 14:57:08.731
35, 34.65, 94.78, 0.00, 0.00, 0.000, 0.000, 0.000, 14:57:08.732
36, 37.25, 98.03, 0.00, 0.00, 0.000, 0.000, 0.000, 14:57:08.732
37, 37.56, 97.84, 0.00, 0.00, 0.000, 0.000, 0.000, 14:57:08.745
38, 36.93, 98.54, 0.00, 0.00, 0.000, 0.000, 0.000, 14:57:08.745
39, 31.28, 96.98, 0.00, 0.00, 0.000, 0.000, 0.000, 14:57:08.760
40, 33.63, 100.18, 0.00, 0.00, 0.000, 0.000, 0.000, 14:57:08.761
41, 35.83, 101.44, 0.00, 0.00, 0.000, 0.000, 0.000, 14:57:08.761
42, 37.72, 96.52, 0.00, 0.00, 0.000, 0.000, 0.000, 14:57:08.761
43, 37.41, 95.33, 0.00, 0.00, 0.000, 0.000, 0.000, 14:57:08.776
44, 34.56, 99.35, 0.00, 0.00, 0.000, 0.000, 0.000, 14:57:08.776
45, 39.57, 100.64, 0.00, 0.00, 0.000, 0.000, 0.000, 14:57:08.790
46, 33.90, 97.09, 0.00, 0.00, 0.000, 0.000, 0.000, 14:57:08.790
47, 35.08, 93.83, 0.00, 0.00, 0.000, 0.000, 0.000, 14:57:08.791
48, 39.05, 100.30, 0.00, 0.00, 0.000, 0.000, 0.000, 14:57:08.791
49, 40.33, 99.80, 0.00, 0.00, 0.000, 0.000, 0.000, 14:57:08.805
50, 37.93, 94.43, 0.00, 0.00, 0.000, 0.000, 0.000, 14:57:08.805
51, 38.91, 91.82, 0.00, 0.00, 0.000, 0.000, 0.000, 14:57:08.824
52, 37.14, 97.53, 0.00, 0.00, 0.000, 0.000, 0.000, 14:57:08.824
53, 39.29, 99.13, 0.00, 0.00, 0.000, 0.000, 0.000, 14:57:08.824
54, 37.11, 94.96, 0.00, 0.00, 0.000, 0.000, 0.000, 14:57:08.825
55, 36.80, 94.58, 0.00, 0.00, 0.000, 0.000, 0.000, 14:57:08.836
56, 40.49, 96.06, 0.00, 0.00, 0.000, 0.000, 0.000, 14:57:08.836
57, 40.50, 98.59, 0.00, 0.00, 0.000, 0.000, 0.000, 14:57:08.850
58, 37.72, 94.98, 0.00, 0.00, 0.000, 0.000, 0.000, 14:57:08.850
59, 36.26, 93.48, 0.00, 0.00, 0.000, 0.000, 0.000, 14:57:08.851
60, 36.30, 95.89, 0.00, 0.00, 0.000, 0.000, 0.000, 14:57:08.851
61, 38.92, 97.19, 0.00, 0.00, 0.000, 0.000, 0.000, 14:57:08.865
62, 38.50, 93.24, 0.00, 0.00, 0.000, 0.000, 0.000, 14:57:08.865
63, 37.78, 94.24, 0.00, 0.00, 0.000, 0.000, 0.000, 14:57:08.879
64, 40.05, 99.82, 0.00, 0.00, 0.000, 0.000, 0.000, 14:57:08.880
65, 40.15, 100.25, 0.00, 0.00, 0.000, 0.000, 0.000, 14:57:08.880
66, 39.91, 96.62, 0.00, 0.00, 0.000, 0.000, 0.000, 14:57:08.880
67, 41.23, 94.23, 0.00, 0.00, 0.000, 0.000, 0.000, 14:57:08.895
68, 38.77, 98.07, 0.00, 0.00, 0.000, 0.000, 0.000, 14:57:08.895
69, 41.16, 101.46, 0.00, 0.00, 0.000, 0.000, 0.000, 14:57:08.909
70, 40.71, 99.62, 0.00, 0.00, 0.000, 0.000, 0.000, 14:57:08.910
71, 38.42, 98.74, 0.00, 0.00, 0.000, 0.000, 0.000, 14:57:08.910
72, 37.60, 101.71, 0.00, 0.00, 0.000, 0.000, 0.000, 14:57:08.910
73, 38.18, 104.14, 0.00, 0.00, 0.000, 0.000, 0.000, 14:57:08.940
74, 37.14, 99.16, 0.00, 0.00, 0.000, 0.000, 0.000, 14:57:08.940
75, 34.84, 99.80, 0.00, 0.00, 0.000, 0.000, 0.000, 14:57:08.940
76, 39.58, 101.92, 0.00, 0.00, 0.000, 0.000, 0.000, 14:57:08.940
77, 37.53, 100.11, 0.00, 0.00, 0.000, 0.000, 0.000, 14:57:08.940
78, 41.66, 98.25, 0.00, 0.00, 0.000, 0.000, 0.000, 14:57:08.940
79, 42.37, 96.82, 0.00, 0.00, 0.000, 0.000, 0.000, 14:57:08.955
80, 41.71, 98.76, 0.00, 0.00, 0.000, 0.000, 0.000, 14:57:08.955
81, 39.81, 102.37, 0.00, 0.00, 0.000, 0.000, 0.000, 14:57:08.970
82, 41.59, 100.42, 0.00, 0.00, 0.000, 0.000, 0.000, 14:57:08.970
83, 38.50, 96.44, 0.00, 0.00, 0.000, 0.000, 0.000, 14:57:08.970
84, 38.48, 102.45, 0.00, 0.00, 0.000, 0.000, 0.000, 14:57:08.970
85, 38.99, 99.97, 0.00, 0.00, 0.000, 0.000, 0.000, 14:57:08.984
86, 39.96, 92.92, 0.00, 0.00, 0.000, 0.000, 0.000, 14:57:08.985
87, 36.84, 91.35, 0.00, 0.00, 0.000, 0.000, 0.000, 14:57:09.000
88, 40.24, 99.40, 0.00, 0.00, 0.000, 0.000, 0.000, 14:57:09.000
89, 37.38, 97.88, 0.00, 0.00, 0.000, 0.000, 0.000, 14:57:09.000
90, 37.44, 95.41, 0.00, 0.00, 0.000, 0.000, 0.000, 14:57:09.001
91, 39.91, 90.96, 0.00, 0.00, 0.000, 0.000, 0.000, 14:57:09.015
92, 35.99, 92.75, 0.00, 0.00, 0.000, 0.000, 0.000, 14:57:09.015
93, 40.78, 95.25, 0.00, 0.00, 0.000, 0.000, 0.000, 14:57:09.030
94, 36.73, 94.25, 0.00, 0.00, 0.000, 0.000, 0.000, 14:57:09.030
95, 36.47, 89.96, 0.00, 0.00, 0.000, 0.000, 0.000, 14:57:09.030
96, 37.88, 91.69, 0.00, 0.00, 0.000, 0.000, 0.000, 14:57:09.030
97, 40.56, 94.61, 0.00, 0.00, 0.000, 0.000, 0.000, 14:57:09.044
98, 40.74, 91.04, 0.00, 0.00, 0.000, 0.000, 0.000, 14:57:09.045
99, 34.23, 89.96, 0.00, 0.00, 0.000, 0.000, 0.000, 14:57:09.060
100, 38.48, 94.08, 0.00, 0.00, 0.000, 0.000, 0.000, 14:57:09.060
101, 39.19, 94.68, 0.00, 0.00, 0.000, 0.000, 0.000, 14:57:09.060
102, 44.32, 93.12, 0.00, 0.00, 0.000, 0.000, 0.000, 14:57:09.061
103, 45.96, 94.30, 0.00, 0.00, 0.000, 0.000, 0.000, 14:57:09.075
104, 42.89, 98.42, 0.00, 0.00, 0.000, 0.000, 0.000, 14:57:09.075
105, 43.22, 96.59, 0.00, 0.00, 0.000, 0.000, 0.000, 14:57:09.090
106, 42.49, 97.20, 0.00, 0.00, 0.000, 0.000, 0.000, 14:57:09.091
107, 41.07, 94.01, 0.00, 0.00, 0.000, 0.000, 0.000, 14:57:09.091
108, 41.06, 98.18, 0.00, 0.00, 0.000, 0.000, 0.000, 14:57:09.091
109, 43.13, 100.52, 0.00, 0.00, 0.000, 0.000, 0.000, 14:57:09.106
110, 41.38, 97.02, 0.00, 0.00, 0.000, 0.000, 0.000, 14:57:09.106
111, 40.83, 95.42, 0.00, 0.00, 0.000, 0.000, 0.000, 14:57:09.120
112, 46.00, 96.78, 0.00, 0.00, 0.000, 0.000, 0.000, 14:57:09.121
113, 43.67, 100.58, 0.00, 0.00, 0.000, 0.000, 0.000, 14:57:09.121
114, 42.97, 96.13, 0.00, 0.00, 0.000, 0.000, 0.000, 14:57:09.121
115, 40.27, 94.70, 0.00, 0.00, 0.000, 0.000, 0.000, 14:57:09.137
116, 43.13, 97.53, 0.00, 0.00, 0.000, 0.000, 0.000, 14:57:09.138
117, 39.16, 99.63, 0.00, 0.00, 0.000, 0.000, 0.000, 14:57:09.151
118, 40.64, 94.66, 0.00, 0.00, 0.000, 0.000, 0.000, 14:57:09.151
119, 38.98, 97.73, 0.00, 0.00, 0.000, 0.000, 0.000, 14:57:09.152
120, 40.60, 98.52, 0.00, 0.00, 0.000, 0.000, 0.000, 14:57:09.152
121, 41.83, 101.09, 0.00, 0.00, 0.000, 0.000, 0.000, 14:57:09.165
122, 39.17, 96.63, 0.00, 0.00, 0.000, 0.000, 0.000, 14:57:09.165
123, 42.78, 97.44, 0.00, 0.00, 0.000, 0.000, 0.000, 14:57:09.179
124, 38.78, 98.02, 0.00, 0.00, 0.000, 0.000, 0.000, 14:57:09.180
125, 39.60, 102.35, 0.00, 0.00, 0.000, 0.000, 0.000, 14:57:09.180
126, 37.45, 95.97, 0.00, 0.00, 0.000, 0.000, 0.000, 14:57:09.180
127, 40.07, 93.22, 0.00, 0.00, 0.000, 0.000, 0.000, 14:57:09.195
128, 42.41, 98.18, 0.00, 0.00, 0.000, 0.000, 0.000, 14:57:09.195
129, 42.87, 98.63, 0.00, 0.00, 0.000, 0.000, 0.000, 14:57:09.210
130, 43.45, 97.07, 0.00, 0.00, 0.000, 0.000, 0.000, 14:57:09.211
131, 34.66, 94.09, 0.00, 0.00, 0.000, 0.000, 0.000, 14:57:09.211
132, 34.74, 100.79, 0.00, 0.00, 0.000, 0.000, 0.000, 14:57:09.211
133, 38.80, 99.86, 0.00, 0.00, 0.000, 0.000, 0.000, 14:57:09.225
134, 37.34, 95.55, 0.00, 0.00, 0.000, 0.000, 0.000, 14:57:09.225
135, 39.91, 92.06, 0.00, 0.00, 0.000, 0.000, 0.000, 14:57:09.240
136, 40.43, 96.04, 0.00, 0.00, 0.000, 0.000, 0.000, 14:57:09.240
137, 39.94, 95.20, 0.00, 0.00, 0.000, 0.000, 0.000, 14:57:09.247
138, 44.15, 92.86, 0.00, 0.00, 0.000, 0.000, 0.000, 14:57:09.248
139, 37.70, 91.92, 0.00, 0.00, 0.000, 0.000, 0.000, 14:57:09.255
140, 40.39, 93.62, 0.00, 0.00, 0.000, 0.000, 0.000, 14:57:09.255
141, 42.18, 94.03, 0.00, 0.00, 0.000, 0.000, 0.000, 14:57:09.270
142, 41.16, 94.08, 0.00, 0.00, 0.000, 0.000, 0.000, 14:57:09.270
143, 39.62, 89.65, 0.00, 0.00, 0.000, 0.000, 0.000, 14:57:09.270
144, 43.68, 92.16, 0.00, 0.00, 0.000, 0.000, 0.000, 14:57:09.270
145, 41.45, 95.57, 0.00, 0.00, 0.000, 0.000, 0.000, 14:57:09.284
146, 42.53, 92.28, 0.00, 0.00, 0.000, 0.000, 0.000, 14:57:09.285
147, 39.25, 87.15, 0.00, 0.00, 0.000, 0.000, 0.000, 14:57:09.301
148, 43.90, 93.59, 0.00, 0.00, 0.000, 0.000, 0.000, 14:57:09.301
149, 44.79, 96.02, 0.00, 0.00, 0.000, 0.000, 0.000, 14:57:09.301
150, 45.92, 92.30, 0.00, 0.00, 0.000, 0.000, 0.000, 14:57:09.301
151, 45.11, 93.55, 0.00, 0.00, 0.000, 0.000, 0.000, 14:57:09.315
152, 42.51, 95.37, 0.00, 0.00, 0.000, 0.000, 0.000, 14:57:09.315
153, 43.88, 100.11, 0.00, 0.00, 0.000, 0.000, 0.000, 14:57:09.345
154, 39.85, 100.03, 0.00, 0.00, 0.000, 0.000, 0.000, 14:57:09.346
155, 42.96, 96.69, 0.00, 0.00, 0.000, 0.000, 0.000, 14:57:09.346
156, 45.74, 99.70, 0.00, 0.00, 0.000, 0.000, 0.000, 14:57:09.346
157, 43.90, 99.00, 0.00, 0.00, 0.000, 0.000, 0.000, 14:57:09.346
158, 43.96, 96.10, 0.00, 0.00, 0.000, 0.000, 0.000, 14:57:09.346
159, 44.40, 96.35, 0.00, 0.00, 0.000, 0.000, 0.000, 14:57:09.346
160, 46.30, 97.23, 0.00, 0.00, 0.000, 0.000, 0.000, 14:57:09.347
161, 45.39, 100.42, 0.00, 0.00, 0.000, 0.000, 0.000, 14:57:09.360
162, 45.18, 98.27, 0.00, 0.00, 0.000, 0.000, 0.000, 14:57:09.360
163, 44.69, 97.16, 0.00, 0.00, 0.000, 0.000, 0.000, 14:57:09.376
164, 44.49, 95.74, 0.00, 0.00, 0.000, 0.000, 0.000, 14:57:09.376
165, 43.04, 99.60, 0.00, 0.00, 0.000, 0.000, 0.000, 14:57:09.390
166, 43.45, 96.04, 0.00, 0.00, 0.000, 0.000, 0.000, 14:57:09.390
167, 41.12, 94.83, 0.00, 0.00, 0.000, 0.000, 0.000, 14:57:09.391
168, 46.65, 100.43, 0.00, 0.00, 0.000, 0.000, 0.000, 14:57:09.391
169, 45.39, 100.32, 0.00, 0.00, 0.000, 0.000, 0.000, 14:57:09.406
170, 40.45, 97.24, 0.00, 0.00, 0.000, 0.000, 0.000, 14:57:09.406
171, 38.56, 93.54, 0.00, 0.00, 0.000, 0.000, 0.000, 14:57:09.421
172, 40.45, 99.92, 0.00, 0.00, 0.000, 0.000, 0.000, 14:57:09.421
173, 40.19, 99.06, 0.00, 0.00, 0.000, 0.000, 0.000, 14:57:09.422
174, 38.63, 96.50, 0.00, 0.00, 0.000, 0.000, 0.000, 14:57:09.422
175, 40.25, 98.57, 0.00, 0.00, 0.000, 0.000, 0.000, 14:57:09.435
176, 44.16, 99.07, 0.00, 0.00, 0.000, 0.000, 0.000, 14:57:09.435
177, 40.28, 99.87, 0.00, 0.00, 0.000, 0.000, 0.000, 14:57:09.450
178, 41.26, 97.26, 0.00, 0.00, 0.000, 0.000, 0.000, 14:57:09.450
179, 34.11, 94.54, 0.00, 0.00, 0.000, 0.000, 0.000, 14:57:09.451
180, 37.73, 98.76, 0.00, 0.00, 0.000, 0.000, 0.000, 14:57:09.452
181, 39.11, 100.20, 0.00, 0.00, 0.000, 0.000, 0.000, 14:57:09.465
182, 36.28, 94.50, 0.00, 0.00, 0.000, 0.000, 0.000, 14:57:09.465
183, 36.90, 95.06, 0.00, 0.00, 0.000, 0.000, 0.000, 14:57:09.479
184, 37.29, 98.57, 0.00, 0.00, 0.000, 0.000, 0.000, 14:57:09.480
185, 38.79, 99.19, 0.00, 0.00, 0.000, 0.000, 0.000, 14:57:09.495
186, 37.09, 93.89, 0.00, 0.00, 0.000, 0.000, 0.000, 14:57:09.496
187, 38.89, 94.10, 0.00, 0.00, 0.000, 0.000, 0.000, 14:57:09.496
188, 38.96, 98.26, 0.00, 0.00, 0.000, 0.000, 0.000, 14:57:09.496
189, 38.39, 101.69, 0.00, 0.00, 0.000, 0.000, 0.000, 14:57:09.510
190, 36.58, 99.09, 0.00, 0.00, 0.000, 0.000, 0.000, 14:57:09.510
191, 34.07, 97.24, 0.00, 0.00, 0.000, 0.000, 0.000, 14:57:09.510
192, 38.91, 101.00, 0.00, 0.00, 0.000, 0.000, 0.000, 14:57:09.510
193, 40.69, 100.80, 0.00, 0.00, 0.000, 0.000, 0.000, 14:57:09.526
194, 36.98, 95.52, 0.00, 0.00, 0.000, 0.000, 0.000, 14:57:09.526
195, 34.93, 95.00, 0.00, 0.00, 0.000, 0.000, 0.000, 14:57:09.540
196, 38.56, 102.46, 0.00, 0.00, 0.000, 0.000, 0.000, 14:57:09.540
197, 37.11, 99.77, 0.00, 0.00, 0.000, 0.000, 0.000, 14:57:09.540
198, 39.38, 93.41, 0.00, 0.00, 0.000, 0.000, 0.000, 14:57:09.540
199, 37.67, 92.25, 0.00, 0.00, 0.000, 0.000, 0.000, 14:57:09.554
200, 35.23, 95.82, 0.00, 0.00, 0.000, 0.000, 0.000, 14:57:09.554
0, 43.73, 99.89, 0.00, 0.00, 0.000, 0.000, 0.000, 14:57:09.555
1, 40.28, 93.90, 0.00, 0.00, 0.000, 0.000, 0.000, 14:57:09.570
2, 37.66, 90.45, 0.00, 0.00, 0.000, 0.000, 0.000, 14:57:09.570
3, 42.18, 95.06, 0.00, 0.00, 0.000, 0.000, 0.000, 14:57:09.585
4, 44.02, 98.56, 0.00, 0.00, 0.000, 0.000, 0.000, 14:57:09.586
5, 39.93, 93.26, 0.00, 0.00, 0.000, 0.000, 0.000, 14:57:09.586
6, 35.45, 89.93, 0.00, 0.00, 0.000, 0.000, 0.000, 14:57:09.586
7, 37.64, 96.41, 0.00, 0.00, 0.000, 0.000, 0.000, 14:57:09.599
8, 36.16, 98.12, 0.00, 0.00, 0.000, 0.000, 0.000, 14:57:09.600
9, 34.45, 94.70, 0.00, 0.00, 0.000, 0.000, 0.000, 14:57:09.614
10, 35.02, 91.89, 0.00, 0.00, 0.000, 0.000, 0.000, 14:57:09.614
11, 37.94, 96.39, 0.00, 0.00, 0.000, 0.000, 0.000, 14:57:09.615
12, 38.04, 96.62, 0.00, 0.00, 0.000, 0.000, 0.000, 14:57:09.616
13, 38.80, 94.93, 0.00, 0.00, 0.000, 0.000, 0.000, 14:57:09.630
14, 37.77, 93.17, 0.00, 0.00, 0.000, 0.000, 0.000, 14:57:09.630
15, 36.43, 97.64, 0.00, 0.00, 0.000, 0.000, 0.000, 14:57:09.645
16, 40.17, 98.65, 0.00, 0.00, 0.000, 0.000, 0.000, 14:57:09.646
17, 39.49, 97.82, 0.00, 0.00, 0.000, 0.000, 0.000, 14:57:09.646
18, 36.85, 91.75, 0.00, 0.00, 0.000, 0.000, 0.000, 14:57:09.646
19, 37.53, 100.09, 0.00, 0.00, 0.000, 0.000, 0.000, 14:57:09.667
20, 38.69, 100.73, 0.00, 0.00, 0.000, 0.000, 0.000, 14:57:09.667
21, 36.70, 96.55, 0.00, 0.00, 0.000, 0.000, 0.000, 14:57:09.675
22, 34.67, 96.24, 0.00, 0.00, 0.000, 0.000, 0.000, 14:57:09.675
23, 39.44, 98.69, 0.00, 0.00, 0.000, 0.000, 0.000, 14:57:09.675
24, 38.83, 99.34, 0.00, 0.00, 0.000, 0.000, 0.000, 14:57:09.675
25, 39.55, 98.00, 0.00, 0.00, 0.000, 0.000, 0.000, 14:57:09.690
26, 39.76, 95.57, 0.00, 0.00, 0.000, 0.000, 0.000, 14:57:09.690
27, 37.40, 97.95, 0.00, 0.00, 0.000, 0.000, 0.000, 14:57:09.705
28, 37.89, 99.22, 0.00, 0.00, 0.000, 0.000, 0.000, 14:57:09.705
29, 36.48, 96.29, 0.00, 0.00, 0.000, 0.000, 0.000, 14:57:09.705
30, 35.62, 96.84, 0.00, 0.00, 0.000, 0.000, 0.000, 14:57:09.705
31, 36.63, 99.92, 0.00, 0.00, 0.000, 0.000, 0.000, 14:57:09.719
32, 41.68, 100.65, 0.00, 0.00, 0.000, 0.000, 0.000, 14:57:09.719
33, 41.76, 95.53, 0.00, 0.00, 0.000, 0.000, 0.000, 14:57:09.734
34, 38.54, 98.38, 0.00, 0.00, 0.000, 0.000, 0.000, 14:57:09.734
35, 40.23, 99.57, 0.00, 0.00, 0.000, 0.000, 0.000, 14:57:09.735
36, 40.69, 101.65, 0.00, 0.00, 0.000, 0.000, 0.000, 14:57:09.735
37, 38.51, 97.84, 0.00, 0.00, 0.000, 0.000, 0.000, 14:57:09.750
38, 39.26, 95.54, 0.00, 0.00, 0.000, 0.000, 0.000, 14:57:09.750
39, 38.85, 97.07, 0.00, 0.00, 0.000, 0.000, 0.000, 14:57:09.765
40, 42.29, 101.70, 0.00, 0.00, 0.000, 0.000, 0.000, 14:57:09.765
41, 41.43, 96.11, 0.00, 0.00, 0.000, 0.000, 0.000, 14:57:09.765
42, 35.71, 93.08, 0.00, 0.00, 0.000, 0.000, 0.000, 14:57:09.766
43, 39.41, 97.34, 0.00, 0.00, 0.000, 0.000, 0.000, 14:57:09.780
44, 40.17, 101.34, 0.00, 0.00, 0.000, 0.000, 0.000, 14:57:09.780
45, 36.84, 98.33, 0.00, 0.00, 0.000, 0.000, 0.000, 14:57:09.795
46, 35.68, 99.97, 0.00, 0.00, 0.000, 0.000, 0.000, 14:57:09.795
47, 35.81, 101.34, 0.00, 0.00, 0.000, 0.000, 0.000, 14:57:09.796
48, 36.84, 103.91, 0.00, 0.00, 0.000, 0.000, 0.000, 14:57:09.796
49, 38.40, 101.36, 0.00, 0.00, 0.000, 0.000, 0.000, 14:57:09.811
50, 35.44, 98.28, 0.00, 0.00, 0.000, 0.000, 0.000, 14:57:09.811
51, 32.87, 103.03, 0.00, 0.00, 0.000, 0.000, 0.000, 14:57:09.825
52, 35.15, 100.00, 0.00, 0.00, 0.000, 0.000, 0.000, 14:57:09.825
53, 33.07, 100.30, 0.00, 0.00, 0.000, 0.000, 0.000, 14:57:09.826
54, 32.60, 97.37, 0.00, 0.00, 0.000, 0.000, 0.000, 14:57:09.826
55, 34.04, 103.08, 0.00, 0.00, 0.000, 0.000, 0.000, 14:57:09.840
56, 30.63, 102.60, 0.00, 0.00, 0.000, 0.000, 0.000, 14:57:09.841
57, 33.25, 101.56, 0.00, 0.00, 0.000, 0.000, 0.000, 14:57:09.855
58, 25.59, 99.29, 0.00, 0.00, 0.000, 0.000, 0.000, 14:57:09.855
59, 31.43, 97.92, 0.00, 0.00, 0.000, 0.000, 0.000, 14:57:09.856
60, 33.36, 98.88, 0.00, 0.00, 0.000, 0.000, 0.000, 14:57:09.856
61, 29.13, 96.94, 0.00, 0.00, 0.000, 0.000, 0.000, 14:57:09.870
62, 29.02, 98.06, 0.00, 0.00, 0.000, 0.000, 0.000, 14:57:09.870
63, 30.25, 100.67, 0.00, 0.00, 0.000, 0.000, 0.000, 14:57:09.885
64, 32.36, 102.82, 0.00, 0.00, 0.000, 0.000, 0.000, 14:57:09.885
65, 32.94, 98.12, 0.00, 0.00, 0.000, 0.000, 0.000, 14:57:09.886
66, 35.30, 98.59, 0.00, 0.00, 0.000, 0.000, 0.000, 14:57:09.886
67, 37.37, 100.39, 0.00, 0.00, 0.000, 0.000, 0.000, 14:57:09.900
68, 36.37, 103.37, 0.00, 0.00, 0.000, 0.000, 0.000, 14:57:09.900
69, 35.92, 100.38, 0.00, 0.00, 0.000, 0.000, 0.000, 14:57:09.915
70, 32.02, 100.00, 0.00, 0.00, 0.000, 0.000, 0.000, 14:57:09.915
71, 32.59, 103.08, 0.00, 0.00, 0.000, 0.000, 0.000, 14:57:09.916
72, 34.90, 103.47, 0.00, 0.00, 0.000, 0.000, 0.000, 14:57:09.916
73, 32.80, 95.79, 0.00, 0.00, 0.000, 0.000, 0.000, 14:57:09.930
74, 30.07, 96.53, 0.00, 0.00, 0.000, 0.000, 0.000, 14:57:09.930
75, 34.30, 100.25, 0.00, 0.00, 0.000, 0.000, 0.000, 14:57:09.945
76, 34.71, 100.83, 0.00, 0.00, 0.000, 0.000, 0.000, 14:57:09.945
77, 35.07, 98.33, 0.00, 0.00, 0.000, 0.000, 0.000, 14:57:09.945
78, 32.88, 95.25, 0.00, 0.00, 0.000, 0.000, 0.000, 14:57:09.945
79, 34.56, 102.12, 0.00, 0.00, 0.000, 0.000, 0.000, 14:57:09.960
80, 37.91, 102.14, 0.00, 0.00, 0.000, 0.000, 0.000, 14:57:09.961
81, 32.64, 99.81, 0.00, 0.00, 0.000, 0.000, 0.000, 14:57:09.975
82, 31.04, 95.38, 0.00, 0.00, 0.000, 0.000, 0.000, 14:57:09.976
83, 35.48, 97.20, 0.00, 0.00, 0.000, 0.000, 0.000, 14:57:09.976
84, 37.12, 101.86, 0.00, 0.00, 0.000, 0.000, 0.000, 14:57:09.976
85, 35.71, 104.10, 0.00, 0.00, 0.000, 0.000, 0.000, 14:57:09.990
86, 32.77, 99.72, 0.00, 0.00, 0.000, 0.000, 0.000, 14:57:09.991
87, 36.31, 103.86, 0.00, 0.00, 0.000, 0.000, 0.000, 14:57:10.005
88, 36.92, 106.11, 0.00, 0.00, 0.000, 0.000, 0.000, 14:57:10.006
89, 33.59, 100.69, 0.00, 0.00, 0.000, 0.000, 0.000, 14:57:10.006
90, 33.60, 101.83, 0.00, 0.00, 0.000, 0.000, 0.000, 14:57:10.006
91, 33.60, 104.39, 0.00, 0.00, 0.000, 0.000, 0.000, 14:57:10.020
92, 33.14, 104.62, 0.00, 0.00, 0.000, 0.000, 0.000, 14:57:10.020
93, 35.52, 100.51, 0.00, 0.00, 0.000, 0.000, 0.000, 14:57:10.035
94, 32.14, 100.10, 0.00, 0.00, 0.000, 0.000, 0.000, 14:57:10.035
95, 31.84, 103.89, 0.00, 0.00, 0.000, 0.000, 0.000, 14:57:10.042
96, 34.94, 103.84, 0.00, 0.00, 0.000, 0.000, 0.000, 14:57:10.042
97, 32.17, 101.20, 0.00, 0.00, 0.000, 0.000, 0.000, 14:57:10.049
98, 33.10, 96.19, 0.00, 0.00, 0.000, 0.000, 0.000, 14:57:10.050
99, 35.59, 106.60, 0.00, 0.00, 0.000, 0.000, 0.000, 14:57:10.065
100, 34.15, 109.78, 0.00, 0.00, 0.000, 0.000, 0.000, 14:57:10.065
101, 33.50, 101.94, 0.00, 0.00, 0.000, 0.000, 0.000, 14:57:10.065
102, 30.03, 105.44, 0.00, 0.00, 0.000, 0.000, 0.000, 14:57:10.065
103, 31.71, 106.17, 0.00, 0.00, 0.000, 0.000, 0.000, 14:57:10.081
104, 31.39, 103.16, 0.00, 0.00, 0.000, 0.000, 0.000, 14:57:10.081
105, 31.90, 102.09, 0.00, 0.00, 0.000, 0.000, 0.000, 14:57:10.095
106, 29.70, 99.76, 0.00, 0.00, 0.000, 0.000, 0.000, 14:57:10.095
107, 30.30, 101.06, 0.00, 0.00, 0.000, 0.000, 0.000, 14:57:10.096
108, 32.95, 103.31, 0.00, 0.00, 0.000, 0.000, 0.000, 14:57:10.097
109, 33.11, 100.97, 0.00, 0.00, 0.000, 0.000, 0.000, 14:57:10.110
110, 32.51, 103.58, 0.00, 0.00, 0.000, 0.000, 0.000, 14:57:10.111
111, 29.30, 107.76, 0.00, 0.00, 0.000, 0.000, 0.000, 14:57:10.125
112, 31.57, 109.86, 0.00, 0.00, 0.000, 0.000, 0.000, 14:57:10.125
113, 28.76, 102.74, 0.00, 0.00, 0.000, 0.000, 0.000, 14:57:10.125
114, 27.84, 102.32, 0.00, 0.00, 0.000, 0.000, 0.000, 14:57:10.126
115, 25.79, 107.41, 0.00, 0.00, 0.000, 0.000, 0.000, 14:57:10.140
116, 28.28, 105.72, 0.00, 0.00, 0.000, 0.000, 0.000, 14:57:10.141
117, 32.27, 102.73, 0.00, 0.00, 0.000, 0.000, 0.000, 14:57:10.155
118, 29.57, 101.10, 0.00, 0.00, 0.000, 0.000, 0.000, 14:57:10.156
119, 28.20, 106.71, 0.00, 0.00, 0.000, 0.000, 0.000, 14:57:10.156
120, 30.91, 108.21, 0.00, 0.00, 0.000, 0.000, 0.000, 14:57:10.157
121, 30.82, 105.46, 0.00, 0.00, 0.000, 0.000, 0.000, 14:57:10.170
122, 27.72, 102.75, 0.00, 0.00, 0.000, 0.000, 0.000, 14:57:10.170
123, 28.74, 105.36, 0.00, 0.00, 0.000, 0.000, 0.000, 14:57:10.185
124, 29.47, 108.03, 0.00, 0.00, 0.000, 0.000, 0.000, 14:57:10.186
125, 27.86, 99.63, 0.00, 0.00, 0.000, 0.000, 0.000, 14:57:10.186
126, 25.23, 101.42, 0.00, 0.00, 0.000, 0.000, 0.000, 14:57:10.186
127, 25.68, 107.06, 0.00, 0.00, 0.000, 0.000, 0.000, 14:57:10.201
128, 25.66, 104.60, 0.00, 0.00, 0.000, 0.000, 0.000, 14:57:10.202
129, 25.57, 104.23, 0.00, 0.00, 0.000, 0.000, 0.000, 14:57:10.214
130, 26.21, 102.50, 0.00, 0.00, 0.000, 0.000, 0.000, 14:57:10.215
131, 26.95, 104.93, 0.00, 0.00, 0.000, 0.000, 0.000, 14:57:10.215
132, 23.64, 107.95, 0.00, 0.00, 0.000, 0.000, 0.000, 14:57:10.216
133, 25.98, 102.09, 0.00, 0.00, 0.000, 0.000, 0.000, 14:57:10.231
134, 25.55, 99.45, 0.00, 0.00, 0.000, 0.000, 0.000, 14:57:10.231
135, 26.79, 105.45, 0.00, 0.00, 0.000, 0.000, 0.000, 14:57:10.246
136, 29.32, 107.08, 0.00, 0.00, 0.000, 0.000, 0.000, 14:57:10.246
137, 26.07, 101.92, 0.00, 0.00, 0.000, 0.000, 0.000, 14:57:10.246
138, 25.42, 103.66, 0.00, 0.00, 0.000, 0.000, 0.000, 14:57:10.246
139, 26.38, 103.09, 0.00, 0.00, 0.000, 0.000, 0.000, 14:57:10.260
140, 25.52, 104.33, 0.00, 0.00, 0.000, 0.000, 0.000, 14:57:10.260
141, 28.12, 103.76, 0.00, 0.00, 0.000, 0.000, 0.000, 14:57:10.275
142, 27.28, 100.86, 0.00, 0.00, 0.000, 0.000, 0.000, 14:57:10.276
143, 27.09, 102.61, 0.00, 0.00, 0.000, 0.000, 0.000, 14:57:10.276
144, 28.47, 105.44, 0.00, 0.00, 0.000, 0.000, 0.000, 14:57:10.276
145, 28.27, 101.21, 0.00, 0.00, 0.000, 0.000, 0.000, 14:57:10.290
146, 25.98, 97.95, 0.00, 0.00, 0.000, 0.000, 0.000, 14:57:10.290
147, 27.97, 101.37, 0.00, 0.00, 0.000, 0.000, 0.000, 14:57:10.305
148, 28.82, 104.52, 0.00, 0.00, 0.000, 0.000, 0.000, 14:57:10.306
149, 27.14, 101.63, 0.00, 0.00, 0.000, 0.000, 0.000, 14:57:10.306
150, 28.82, 101.45, 0.00, 0.00, 0.000, 0.000, 0.000, 14:57:10.306
151, 29.21, 105.42, 0.00, 0.00, 0.000, 0.000, 0.000, 14:57:10.320
152, 29.11, 107.57, 0.00, 0.00, 0.000, 0.000, 0.000, 14:57:10.320
153, 26.07, 106.69, 0.00, 0.00, 0.000, 0.000, 0.000, 14:57:10.335
154, 25.62, 102.49, 0.00, 0.00, 0.000, 0.000, 0.000, 14:57:10.335
155, 24.29, 106.50, 0.00, 0.00, 0.000, 0.000, 0.000, 14:57:10.335
156, 22.78, 110.91, 0.00, 0.00, 0.000, 0.000, 0.000, 14:57:10.335
157, 21.69, 108.22, 0.00, 0.00, 0.000, 0.000, 0.000, 14:57:10.350
158, 22.80, 110.35, 0.00, 0.00, 0.000, 0.000, 0.000, 14:57:10.350
159, 23.74, 113.60, 0.00, 0.00, 0.000, 0.000, 0.000, 14:57:10.365
160, 26.90, 110.86, 0.00, 0.00, 0.000, 0.000, 0.000, 14:57:10.366
161, 25.98, 104.55, 0.00, 0.00, 0.000, 0.000, 0.000, 14:57:10.366
162, 25.96, 104.30, 0.00, 0.00, 0.000, 0.000, 0.000, 14:57:10.366
163, 28.62, 114.49, 0.00, 0.00, 0.000, 0.000, 0.000, 14:57:10.380
164, 27.47, 113.27, 0.00, 0.00, 0.000, 0.000, 0.000, 14:57:10.380
165, 29.97, 112.00, 0.00, 0.00, 0.000, 0.000, 0.000, 14:57:10.395
166, 27.40, 115.68, 0.00, 0.00, 0.000, 0.000, 0.000, 14:57:10.395
167, 23.92, 113.63, 0.00, 0.00, 0.000, 0.000, 0.000, 14:57:10.395
168, 28.81, 115.33, 0.00, 0.00, 0.000, 0.000, 0.000, 14:57:10.396
169, 23.61, 113.78, 0.00, 0.00, 0.000, 0.000, 0.000, 14:57:10.410
170, 23.56, 110.83, 0.00, 0.00, 0.000, 0.000, 0.000, 14:57:10.410
171, 25.15, 115.27, 0.00, 0.00, 0.000, 0.000, 0.000, 14:57:10.428
172, 27.04, 110.83, 0.00, 0.00, 0.000, 0.000, 0.000, 14:57:10.428
173, 26.47, 108.88, 0.00, 0.00, 0.000, 0.000, 0.000, 14:57:10.429
174, 25.03, 109.91, 0.00, 0.00, 0.000, 0.000, 0.000, 14:57:10.429
175, 27.14, 110.96, 0.00, 0.00, 0.000, 0.000, 0.000, 14:57:10.442
176, 30.93, 111.61, 0.00, 0.00, 0.000, 0.000, 0.000, 14:57:10.442
177, 27.91, 105.35, 0.00, 0.00, 0.000, 0.000, 0.000, 14:57:10.455
178, 26.28, 106.99, 0.00, 0.00, 0.000, 0.000, 0.000, 14:57:10.456
179, 30.02, 107.87, 0.00, 0.00, 0.000, 0.000, 0.000, 14:57:10.456
180, 29.28, 112.17, 0.00, 0.00, 0.000, 0.000, 0.000, 14:57:10.456
181, 29.33, 107.44, 0.00, 0.00, 0.000, 0.000, 0.000, 14:57:10.470
182, 23.56, 108.95, 0.00, 0.00, 0.000, 0.000, 0.000, 14:57:10.470
183, 31.63, 109.08, 0.00, 0.00, 0.000, 0.000, 0.000, 14:57:10.485
184, 29.37, 111.14, 0.00, 0.00, 0.000, 0.000, 0.000, 14:57:10.485
185, 31.97, 109.28, 0.00, 0.00, 0.000, 0.000, 0.000, 14:57:10.493
186, 29.72, 106.07, 0.00, 0.00, 0.000, 0.000, 0.000, 14:57:10.493
187, 33.04, 111.31, 0.00, 0.00, 0.000, 0.000, 0.000, 14:57:10.500
188, 32.09, 111.70, 0.00, 0.00, 0.000, 0.000, 0.000, 14:57:10.500
189, 27.74, 106.40, 0.00, 0.00, 0.000, 0.000, 0.000, 14:57:10.515
190, 29.30, 108.90, 0.00, 0.00, 0.000, 0.000, 0.000, 14:57:10.515
191, 29.31, 110.88, 0.00, 0.00, 0.000, 0.000, 0.000, 14:57:10.518
192, 30.26, 110.05, 0.00, 0.00, 0.000, 0.000, 0.000, 14:57:10.518
193, 31.12, 109.18, 0.00, 0.00, 0.000, 0.000, 0.000, 14:57:10.530
194, 30.24, 104.90, 0.00, 0.00, 0.000, 0.000, 0.000, 14:57:10.531
195, 30.00, 109.03, 0.00, 0.00, 0.000, 0.000, 0.000, 14:57:10.545
196, 28.56, 109.28, 0.00, 0.00, 0.000, 0.000, 0.000, 14:57:10.545
197, 32.08, 107.17, 0.00, 0.00, 0.000, 0.000, 0.000, 14:57:10.545
198, 32.53, 105.33, 0.00, 0.00, 0.000, 0.000, 0.000, 14:57:10.546
199, 29.17, 110.23, 0.00, 0.00, 0.000, 0.000, 0.000, 14:57:10.560
200, 29.99, 108.75, 0.00, 0.00, 0.000, 0.000, 0.000, 14:57:10.561
0, 30.74, 105.27, 0.00, 0.00, 0.000, 0.000, 0.000, 14:57:10.561
1, 26.27, 105.69, 0.00, 0.00, 0.000, 0.000, 0.000, 14:57:10.575
2, 27.77, 109.66, 0.00, 0.00, 0.000, 0.000, 0.000, 14:57:10.575
3, 27.98, 113.10, 0.00, 0.00, 0.000, 0.000, 0.000, 14:57:10.605
4, 25.95, 107.19, 0.00, 0.00, 0.000, 0.000, 0.000, 14:57:10.605
5, 28.17, 106.21, 0.00, 0.00, 0.000, 0.000, 0.000, 14:57:10.605
6, 27.36, 110.90, 0.00, 0.00, 0.000, 0.000, 0.000, 14:57:10.605
7, 29.64, 112.61, 0.00, 0.00, 0.000, 0.000, 0.000, 14:57:10.606
8, 27.62, 105.90, 0.00, 0.00, 0.000, 0.000, 0.000, 14:57:10.606
9, 25.02, 105.60, 0.00, 0.00, 0.000, 0.000, 0.000, 14:57:10.606
10, 27.11, 106.84, 0.00, 0.00, 0.000, 0.000, 0.000, 14:57:10.606
11, 28.31, 110.69, 0.00, 0.00, 0.000, 0.000, 0.000, 14:57:10.620
12, 25.21, 107.98, 0.00, 0.00, 0.000, 0.000, 0.000, 14:57:10.620
13, 28.21, 104.74, 0.00, 0.00, 0.000, 0.000, 0.000, 14:57:10.636
14, 28.61, 110.82, 0.00, 0.00, 0.000, 0.000, 0.000, 14:57:10.636
15, 32.11, 110.88, 0.00, 0.00, 0.000, 0.000, 0.000, 14:57:10.650
16, 29.38, 111.75, 0.00, 0.00, 0.000, 0.000, 0.000, 14:57:10.650
17, 28.37, 103.68, 0.00, 0.00, 0.000, 0.000, 0.000, 14:57:10.651
18, 30.20, 110.63, 0.00, 0.00, 0.000, 0.000, 0.000, 14:57:10.651
19, 31.63, 113.01, 0.00, 0.00, 0.000, 0.000, 0.000, 14:57:10.666
20, 31.07, 110.77, 0.00, 0.00, 0.000, 0.000, 0.000, 14:57:10.667
21, 29.69, 110.18, 0.00, 0.00, 0.000, 0.000, 0.000, 14:57:10.680
22, 30.97, 112.02, 0.00, 0.00, 0.000, 0.000, 0.000, 14:57:10.680
23, 30.58, 116.17, 0.00, 0.00, 0.000, 0.000, 0.000, 14:57:10.681
24, 34.38, 112.55, 0.00, 0.00, 0.000, 0.000, 0.000, 14:57:10.681
25, 28.44, 109.54, 0.00, 0.00, 0.000, 0.000, 0.000, 14:57:10.695
26, 31.85, 114.11, 0.00, 0.00, 0.000, 0.000, 0.000, 14:57:10.695
27, 34.09, 114.29, 0.00, 0.00, 0.000, 0.000, 0.000, 14:57:10.710
28, 35.31, 110.92, 0.00, 0.00, 0.000, 0.000, 0.000, 14:57:10.710
29, 39.75, 110.55, 0.00, 0.00, 0.000, 0.000, 0.000, 14:57:10.710
30, 34.16, 110.05, 0.00, 0.00, 0.000, 0.000, 0.000, 14:57:10.711
31, 35.14, 114.13, 0.00, 0.00, 0.000, 0.000, 0.000, 14:57:10.725
32, 33.81, 109.72, 0.00, 0.00, 0.000, 0.000, 0.000, 14:57:10.725
33, 32.05, 107.93, 0.00, 0.00, 0.000, 0.000, 0.000, 14:57:10.740
34, 36.13, 110.83, 0.00, 0.00, 0.000, 0.000, 0.000, 14:57:10.740
35, 39.08, 110.31, 0.00, 0.00, 0.000, 0.000, 0.000, 14:57:10.755
36, 35.57, 114.24, 0.00, 0.00, 0.000, 0.000, 0.000, 14:57:10.755
37, 33.50, 109.90, 0.00, 0.00, 0.000, 0.000, 0.000, 14:57:10.755
38, 30.45, 114.15, 0.00, 0.00, 0.000, 0.000, 0.000, 14:57:10.755
39, 32.43, 117.37, 0.00, 0.00, 0.000, 0.000, 0.000, 14:57:10.770
40, 36.05, 113.44, 0.00, 0.00, 0.000, 0.000, 0.000, 14:57:10.770
41, 33.16, 114.20, 0.00, 0.00, 0.000, 0.000, 0.000, 14:57:10.770
42, 32.31, 114.39, 0.00, 0.00, 0.000, 0.000, 0.000, 14:57:10.771
43, 32.68, 118.46, 0.00, 0.00, 0.000, 0.000, 0.000, 14:57:10.785
44, 36.61, 113.07, 0.00, 0.00, 0.000, 0.000, 0.000, 14:57:10.785
45, 36.38, 108.56, 0.00, 0.00, 0.000, 0.000, 0.000, 14:57:10.800
46, 36.77, 112.25, 0.00, 0.00, 0.000, 0.000, 0.000, 14:57:10.800
47, 37.45, 116.20, 0.00, 0.00, 0.000, 0.000, 0.000, 14:57:10.800
48, 36.44, 109.33, 0.00, 0.00, 0.000, 0.000, 0.000, 14:57:10.801
49, 33.03, 111.66, 0.00, 0.00, 0.000, 0.000, 0.000, 14:57:10.815
50, 33.05, 114.54, 0.00, 0.00, 0.000, 0.000, 0.000, 14:57:10.815
51, 37.25, 116.03, 0.00, 0.00, 0.000, 0.000, 0.000, 14:57:10.830
52, 31.56, 112.04, 0.00, 0.00, 0.000, 0.000, 0.000, 14:57:10.830
53, 30.81, 108.86, 0.00, 0.00, 0.000, 0.000, 0.000, 14:57:10.838
54, 31.32, 113.82, 0.00, 0.00, 0.000, 0.000, 0.000, 14:57:10.838
55, 35.31, 117.34, 0.00, 0.00, 0.000, 0.000, 0.000, 14:57:10.845
56, 35.91, 110.52, 0.00, 0.00, 0.000, 0.000, 0.000, 14:57:10.846
57, 34.86, 110.64, 0.00, 0.00, 0.000, 0.000, 0.000, 14:57:10.860
58, 34.40, 113.30, 0.00, 0.00, 0.000, 0.000, 0.000, 14:57:10.860
59, 34.08, 115.70, 0.00, 0.00, 0.000, 0.000, 0.000, 14:57:10.861
60, 33.36, 111.51, 0.00, 0.00, 0.000, 0.000, 0.000, 14:57:10.861
61, 35.67, 110.02, 0.00, 0.00, 0.000, 0.000, 0.000, 14:57:10.875
62, 33.85, 115.68, 0.00, 0.00, 0.000, 0.000, 0.000, 14:57:10.875
63, 34.94, 117.87, 0.00, 0.00, 0.000, 0.000, 0.000, 14:57:10.890
64, 33.51, 113.31, 0.00, 0.00, 0.000, 0.000, 0.000, 14:57:10.891
65, 35.90, 110.67, 0.00, 0.00, 0.000, 0.000, 0.000, 14:57:10.891
66, 38.07, 115.44, 0.00, 0.00, 0.000, 0.000, 0.000, 14:57:10.892
67, 40.09, 119.78, 0.00, 0.00, 0.000, 0.000, 0.000, 14:57:10.905
68, 37.18, 112.38, 0.00, 0.00, 0.000, 0.000, 0.000, 14:57:10.905
69, 31.18, 112.05, 0.00, 0.00, 0.000, 0.000, 0.000, 14:57:10.941
70, 32.11, 114.96, 0.00, 0.00, 0.000, 0.000, 0.000, 14:57:10.941
71, 32.64, 114.56, 0.00, 0.00, 0.000, 0.000, 0.000, 14:57:10.941
72, 32.48, 112.35, 0.00, 0.00, 0.000, 0.000, 0.000, 14:57:10.941
73, 29.52, 109.64, 0.00, 0.00, 0.000, 0.000, 0.000, 14:57:10.942
74, 31.00, 109.40, 0.00, 0.00, 0.000, 0.000, 0.000, 14:57:10.942
75, 32.25, 111.03, 0.00, 0.00, 0.000, 0.000, 0.000, 14:57:10.950
76, 29.52, 108.56, 0.00, 0.00, 0.000, 0.000, 0.000, 14:57:10.950
77, 28.09, 108.79, 0.00, 0.00, 0.000, 0.000, 0.000, 14:57:10.950
78, 32.16, 113.04, 0.00, 0.00, 0.000, 0.000, 0.000, 14:57:10.950
79, 32.85, 115.81, 0.00, 0.00, 0.000, 0.000, 0.000, 14:57:10.965
80, 29.76, 111.51, 0.00, 0.00, 0.000, 0.000, 0.000, 14:57:10.965
81, 30.29, 109.53, 0.00, 0.00, 0.000, 0.000, 0.000, 14:57:10.979
82, 31.30, 116.56, 0.00, 0.00, 0.000, 0.000, 0.000, 14:57:10.979
83, 32.26, 115.21, 0.00, 0.00, 0.000, 0.000, 0.000, 14:57:10.980
84, 33.63, 111.35, 0.00, 0.00, 0.000, 0.000, 0.000, 14:57:10.980
85, 30.88, 109.94, 0.00, 0.00, 0.000, 0.000, 0.000, 14:57:10.998
86, 28.32, 113.15, 0.00, 0.00, 0.000, 0.000, 0.000, 14:57:10.998
87, 34.25, 115.59, 0.00, 0.00, 0.000, 0.000, 0.000, 14:57:11.011
88, 35.75, 112.40, 0.00, 0.00, 0.000, 0.000, 0.000, 14:57:11.011
89, 29.82, 113.06, 0.00, 0.00, 0.000, 0.000, 0.000, 14:57:11.011
90, 28.78, 117.61, 0.00, 0.00, 0.000, 0.000, 0.000, 14:57:11.011
91, 30.47, 115.95, 0.00, 0.00, 0.000, 0.000, 0.000, 14:57:11.025
92, 27.57, 116.37, 0.00, 0.00, 0.000, 0.000, 0.000, 14:57:11.025
93, 25.33, 112.44, 0.00, 0.00, 0.000, 0.000, 0.000, 14:57:11.040
94, 29.36, 114.79, 0.00, 0.00, 0.000, 0.000, 0.000, 14:57:11.040
95, 26.44, 112.95, 0.00, 0.00, 0.000, 0.000, 0.000, 14:57:11.040
96, 28.91, 111.17, 0.00, 0.00, 0.000, 0.000, 0.000, 14:57:11.040
97, 26.01, 111.73, 0.00, 0.00, 0.000, 0.000, 0.000, 14:57:11.055
98, 30.61, 114.05, 0.00, 0.00, 0.000, 0.000, 0.000, 14:57:11.055
99, 30.88, 112.24, 0.00, 0.00, 0.000, 0.000, 0.000, 14:57:11.070
100, 29.35, 109.32, 0.00, 0.00, 0.000, 0.000, 0.000, 14:57:11.070
101, 29.54, 109.24, 0.00, 0.00, 0.000, 0.000, 0.000, 14:57:11.070
102, 31.12, 113.00, 0.00, 0.00, 0.000, 0.000, 0.000, 14:57:11.071
103, 31.46, 116.67, 0.00, 0.00, 0.000, 0.000, 0.000, 14:57:11.084
104, 31.70, 111.97, 0.00, 0.00, 0.000, 0.000, 0.000, 14:57:11.084
105, 31.12, 110.46, 0.00, 0.00, 0.000, 0.000, 0.000, 14:57:11.100
106, 31.43, 111.68, 0.00, 0.00, 0.000, 0.000, 0.000, 14:57:11.100
107, 36.67, 114.47, 0.00, 0.00, 0.000, 0.000, 0.000, 14:57:11.100
108, 28.99, 111.78, 0.00, 0.00, 0.000, 0.000, 0.000, 14:57:11.100
109, 30.20, 113.70, 0.00, 0.00, 0.000, 0.000, 0.000, 14:57:11.116
110, 28.07, 114.79, 0.00, 0.00, 0.000, 0.000, 0.000, 14:57:11.116
111, 33.14, 119.04, 0.00, 0.00, 0.000, 0.000, 0.000, 14:57:11.131
112, 30.67, 115.53, 0.00, 0.00, 0.000, 0.000, 0.000, 14:57:11.131
113, 26.60, 111.92, 0.00, 0.00, 0.000, 0.000, 0.000, 14:57:11.137
114, 28.80, 113.95, 0.00, 0.00, 0.000, 0.000, 0.000, 14:57:11.137
115, 32.57, 118.52, 0.00, 0.00, 0.000, 0.000, 0.000, 14:57:11.145
116, 30.02, 115.51, 0.00, 0.00, 0.000, 0.000, 0.000, 14:57:11.145
117, 31.21, 110.27, 0.00, 0.00, 0.000, 0.000, 0.000, 14:57:11.160
118, 31.91, 115.27, 0.00, 0.00, 0.000, 0.000, 0.000, 14:57:11.160
119, 28.32, 114.46, 0.00, 0.00, 0.000, 0.000, 0.000, 14:57:11.165
120, 29.48, 115.03, 0.00, 0.00, 0.000, 0.000, 0.000, 14:57:11.166
121, 28.26, 112.00, 0.00, 0.00, 0.000, 0.000, 0.000, 14:57:11.176
122, 29.01, 114.57, 0.00, 0.00, 0.000, 0.000, 0.000, 14:57:11.176
123, 26.88, 114.76, 0.00, 0.00, 0.000, 0.000, 0.000, 14:57:11.191
124, 26.84, 115.77, 0.00, 0.00, 0.000, 0.000, 0.000, 14:57:11.191
125, 28.73, 109.67, 0.00, 0.00, 0.000, 0.000, 0.000, 14:57:11.191
126, 28.56, 113.69, 0.00, 0.00, 0.000, 0.000, 0.000, 14:57:11.191
127, 29.31, 114.45, 0.00, 0.00, 0.000, 0.000, 0.000, 14:57:11.206
128, 31.81, 115.29, 0.00, 0.00, 0.000, 0.000, 0.000, 14:57:11.206
129, 25.17, 112.74, 0.00, 0.00, 0.000, 0.000, 0.000, 14:57:11.235
130, 25.49, 116.55, 0.00, 0.00, 0.000, 0.000, 0.000, 14:57:11.235
131, 23.81, 117.78, 0.00, 0.00, 0.000, 0.000, 0.000, 14:57:11.235
132, 25.84, 111.37, 0.00, 0.00, 0.000, 0.000, 0.000, 14:57:11.235
133, 25.03, 108.05, 0.00, 0.00, 0.000, 0.000, 0.000, 14:57:11.236
134, 23.12, 113.20, 0.00, 0.00, 0.000, 0.000, 0.000, 14:57:11.236
135, 27.47, 115.12, 0.00, 0.00, 0.000, 0.000, 0.000, 14:57:11.237
136, 23.38, 111.94, 0.00, 0.00, 0.000, 0.000, 0.000, 14:57:11.237
137, 22.95, 114.43, 0.00, 0.00, 0.000, 0.000, 0.000, 14:57:11.250
138, 25.91, 117.14, 0.00, 0.00, 0.000, 0.000, 0.000, 14:57:11.250
139, 26.99, 117.69, 0.00, 0.00, 0.000, 0.000, 0.000, 14:57:11.265
140, 21.88, 113.52, 0.00, 0.00, 0.000, 0.000, 0.000, 14:57:11.265
141, 22.41, 113.17, 0.00, 0.00, 0.000, 0.000, 0.000, 14:57:11.280
142, 26.54, 113.54, 0.00, 0.00, 0.000, 0.000, 0.000, 14:57:11.280
143, 23.18, 115.43, 0.00, 0.00, 0.000, 0.000, 0.000, 14:57:11.280
144, 22.54, 112.38, 0.00, 0.00, 0.000, 0.000, 0.000, 14:57:11.281
145, 25.03, 112.53, 0.00, 0.00, 0.000, 0.000, 0.000, 14:57:11.295
146, 21.36, 116.18, 0.00, 0.00, 0.000, 0.000, 0.000, 14:57:11.295
147, 20.11, 115.32, 0.00, 0.00, 0.000, 0.000, 0.000, 14:57:11.311
148, 20.74, 109.95, 0.00, 0.00, 0.000, 0.000, 0.000, 14:57:11.311
149, 21.28, 109.02, 0.00, 0.00, 0.000, 0.000, 0.000, 14:57:11.311
150, 24.80, 112.89, 0.00, 0.00, 0.000, 0.000, 0.000, 14:57:11.311
151, 22.83, 117.51, 0.00, 0.00, 0.000, 0.000, 0.000, 14:57:11.325
152, 22.80, 112.17, 0.00, 0.00, 0.000, 0.000, 0.000, 14:57:11.326
153, 22.77, 111.00, 0.00, 0.00, 0.000, 0.000, 0.000, 14:57:11.343
154, 23.95, 114.27, 0.00, 0.00, 0.000, 0.000, 0.000, 14:57:11.343
155, 23.35, 116.40, 0.00, 0.00, 0.000, 0.000, 0.000, 14:57:11.343
156, 22.78, 111.31, 0.00, 0.00, 0.000, 0.000, 0.000, 14:57:11.343
157, 24.82, 113.37, 0.00, 0.00, 0.000, 0.000, 0.000, 14:57:11.357
158, 25.12, 118.00, 0.00, 0.00, 0.000, 0.000, 0.000, 14:57:11.358
159, 25.41, 116.78, 0.00, 0.00, 0.000, 0.000, 0.000, 14:57:11.371
160, 27.68, 115.34, 0.00, 0.00, 0.000, 0.000, 0.000, 14:57:11.372
161, 24.07, 110.44, 0.00, 0.00, 0.000, 0.000, 0.000, 14:57:11.372
162, 24.53, 112.47, 0.00, 0.00, 0.000, 0.000, 0.000, 14:57:11.372
163, 29.55, 120.88, 0.00, 0.00, 0.000, 0.000, 0.000, 14:57:11.385
164, 24.88, 113.91, 0.00, 0.00, 0.000, 0.000, 0.000, 14:57:11.385
165, 23.84, 116.64, 0.00, 0.00, 0.000, 0.000, 0.000, 14:57:11.400
166, 23.48, 116.20, 0.00, 0.00, 0.000, 0.000, 0.000, 14:57:11.400
167, 26.49, 122.64, 0.00, 0.00, 0.000, 0.000, 0.000, 14:57:11.400
168, 20.66, 119.69, 0.00, 0.00, 0.000, 0.000, 0.000, 14:57:11.401
169, 19.20, 119.32, 0.00, 0.00, 0.000, 0.000, 0.000, 14:57:11.415
170, 21.17, 115.88, 0.00, 0.00, 0.000, 0.000, 0.000, 14:57:11.415
171, 25.61, 117.07, 0.00, 0.00, 0.000, 0.000, 0.000, 14:57:11.433
172, 23.09, 116.78, 0.00, 0.00, 0.000, 0.000, 0.000, 14:57:11.434
173, 20.32, 114.54, 0.00, 0.00, 0.000, 0.000, 0.000, 14:57:11.434
174, 20.82, 118.62, 0.00, 0.00, 0.000, 0.000, 0.000, 14:57:11.434
175, 22.90, 115.10, 0.00, 0.00, 0.000, 0.000, 0.000, 14:57:11.446
176, 20.02, 114.76, 0.00, 0.00, 0.000, 0.000, 0.000, 14:57:11.446
177, 17.45, 108.78, 0.00, 0.00, 0.000, 0.000, 0.000, 14:57:11.460
178, 20.76, 114.24, 0.00, 0.00, 0.000, 0.000, 0.000, 14:57:11.460
179, 23.46, 119.74, 0.00, 0.00, 0.000, 0.000, 0.000, 14:57:11.461
180, 21.24, 114.95, 0.00, 0.00, 0.000, 0.000, 0.000, 14:57:11.461
181, 20.23, 114.12, 0.00, 0.00, 0.000, 0.000, 0.000, 14:57:11.475
182, 22.65, 113.94, 0.00, 0.00, 0.000, 0.000, 0.000, 14:57:11.476
183, 19.40, 114.94, 0.00, 0.00, 0.000, 0.000, 0.000, 14:57:11.490
184, 17.38, 113.57, 0.00, 0.00, 0.000, 0.000, 0.000, 14:57:11.490
185, 15.73, 113.08, 0.00, 0.00, 0.000, 0.000, 0.000, 14:57:11.490
186, 16.00, 118.13, 0.00, 0.00, 0.000, 0.000, 0.000, 14:57:11.491
187, 17.90, 117.35, 0.00, 0.00, 0.000, 0.000, 0.000, 14:57:11.505
188, 16.70, 118.92, 0.00, 0.00, 0.000, 0.000, 0.000, 14:57:11.505
189, 15.62, 115.78, 0.00, 0.00, 0.000, 0.000, 0.000, 14:57:11.519
190, 14.54, 117.72, 0.00, 0.00, 0.000, 0.000, 0.000, 14:57:11.520
191, 20.21, 118.24, 0.00, 0.00, 0.000, 0.000, 0.000, 14:57:11.520
192, 21.05, 114.89, 0.00, 0.00, 0.000, 0.000, 0.000, 14:57:11.520
193, 20.74, 113.25, 0.00, 0.00, 0.000, 0.000, 0.000, 14:57:11.535
194, 21.04, 117.06, 0.00, 0.00, 0.000, 0.000, 0.000, 14:57:11.535
195, 18.82, 119.42, 0.00, 0.00, 0.000, 0.000, 0.000, 14:57:11.549
196, 15.50, 117.25, 0.00, 0.00, 0.000, 0.000, 0.000, 14:57:11.550
197, 17.24, 115.67, 0.00, 0.00, 0.000, 0.000, 0.000, 14:57:11.550
198, 14.87, 119.80, 0.00, 0.00, 0.000, 0.000, 0.000, 14:57:11.551
199, 24.49, 117.43, 0.00, 0.00, 0.000, 0.000, 0.000, 14:57:11.565
200, 17.78, 118.01, 0.00, 0.00, 0.000, 0.000, 0.000, 14:57:11.565
0, 19.07, 114.64, 0.00, 0.00, 0.000, 0.000, 0.000, 14:57:11.565
1, 20.65, 119.72, 0.00, 0.00, 0.000, 0.000, 0.000, 14:57:11.580
2, 20.55, 117.39, 0.00, 0.00, 0.000, 0.000, 0.000, 14:57:11.581
3, 20.57, 113.77, 0.00, 0.00, 0.000, 0.000, 0.000, 14:57:11.595
4, 20.84, 113.49, 0.00, 0.00, 0.000, 0.000, 0.000, 14:57:11.595
5, 17.57, 116.48, 0.00, 0.00, 0.000, 0.000, 0.000, 14:57:11.596
6, 21.26, 119.96, 0.00, 0.00, 0.000, 0.000, 0.000, 14:57:11.596
7, 19.85, 120.24, 0.00, 0.00, 0.000, 0.000, 0.000, 14:57:11.611
8, 19.50, 114.40, 0.00, 0.00, 0.000, 0.000, 0.000, 14:57:11.611
9, 20.83, 116.11, 0.00, 0.00, 0.000, 0.000, 0.000, 14:57:11.625
10, 22.81, 118.61, 0.00, 0.00, 0.000, 0.000, 0.000, 14:57:11.625
11, 20.19, 115.09, 0.00, 0.00, 0.000, 0.000, 0.000, 14:57:11.625
12, 17.71, 111.46, 0.00, 0.00, 0.000, 0.000, 0.000, 14:57:11.625
13, 18.58, 116.36, 0.00, 0.00, 0.000, 0.000, 0.000, 14:57:11.641
14, 22.51, 113.45, 0.00, 0.00, 0.000, 0.000, 0.000, 14:57:11.641
15, 20.07, 115.72, 0.00, 0.00, 0.000, 0.000, 0.000, 14:57:11.655
16, 18.76, 116.50, 0.00, 0.00, 0.000, 0.000, 0.000, 14:57:11.655
17, 20.50, 114.73, 0.00, 0.00, 0.000, 0.000, 0.000, 14:57:11.655
18, 20.69, 116.85, 0.00, 0.00, 0.000, 0.000, 0.000, 14:57:11.655
19, 18.61, 115.85, 0.00, 0.00, 0.000, 0.000, 0.000, 14:57:11.670
20, 16.40, 110.76, 0.00, 0.00, 0.000, 0.000, 0.000, 14:57:11.670
21, 17.22, 111.92, 0.00, 0.00, 0.000, 0.000, 0.000, 14:57:11.684
22, 17.77, 116.94, 0.00, 0.00, 0.000, 0.000, 0.000, 14:57:11.685
23, 19.96, 112.14, 0.00, 0.00, 0.000, 0.000, 0.000, 14:57:11.685
24, 18.30, 108.64, 0.00, 0.00, 0.000, 0.000, 0.000, 14:57:11.685
25, 19.91, 114.46, 0.00, 0.00, 0.000, 0.000, 0.000, 14:57:11.699
26, 23.40, 114.06, 0.00, 0.00, 0.000, 0.000, 0.000, 14:57:11.700
27, 23.32, 110.64, 0.00, 0.00, 0.000, 0.000, 0.000, 14:57:11.714
28, 20.81, 109.84, 0.00, 0.00, 0.000, 0.000, 0.000, 14:57:11.715
29, 20.26, 111.50, 0.00, 0.00, 0.000, 0.000, 0.000, 14:57:11.715
30, 22.88, 117.76, 0.00, 0.00, 0.000, 0.000, 0.000, 14:57:11.715
31, 24.17, 114.03, 0.00, 0.00, 0.000, 0.000, 0.000, 14:57:11.730
32, 20.02, 108.91, 0.00, 0.00, 0.000, 0.000, 0.000, 14:57:11.730
33, 21.72, 111.26, 0.00, 0.00, 0.000, 0.000, 0.000, 14:57:11.745
34, 24.13, 117.52, 0.00, 0.00, 0.000, 0.000, 0.000, 14:57:11.745
35, 21.07, 114.25, 0.00, 0.00, 0.000, 0.000, 0.000, 14:57:11.746
36, 19.97, 112.96, 0.00, 0.00, 0.000, 0.000, 0.000, 14:57:11.746
37, 21.66, 115.35, 0.00, 0.00, 0.000, 0.000, 0.000, 14:57:11.760
38, 24.35, 116.58, 0.00, 0.00, 0.000, 0.000, 0.000, 14:57:11.760
39, 18.21, 112.23, 0.00, 0.00, 0.000, 0.000, 0.000, 14:57:11.775
40, 21.08, 111.41, 0.00, 0.00, 0.000, 0.000, 0.000, 14:57:11.775
41, 22.29, 114.02, 0.00, 0.00, 0.000, 0.000, 0.000, 14:57:11.775
42, 19.81, 117.07, 0.00, 0.00, 0.000, 0.000, 0.000, 14:57:11.776
43, 20.38, 112.20, 0.00, 0.00, 0.000, 0.000, 0.000, 14:57:11.790
44, 20.17, 108.84, 0.00, 0.00, 0.000, 0.000, 0.000, 14:57:11.790
45, 20.16, 111.66, 0.00, 0.00, 0.000, 0.000, 0.000, 14:57:11.805
46, 21.02, 114.27, 0.00, 0.00, 0.000, 0.000, 0.000, 14:57:11.805
47, 15.51, 112.49, 0.00, 0.00, 0.000, 0.000, 0.000, 14:57:11.812
48, 18.42, 112.69, 0.00, 0.00, 0.000, 0.000, 0.000, 14:57:11.812
49, 18.13, 112.12, 0.00, 0.00, 0.000, 0.000, 0.000, 14:57:11.820
50, 18.69, 117.19, 0.00, 0.00, 0.000, 0.000, 0.000, 14:57:11.820
51, 18.88, 113.53, 0.00, 0.00, 0.000, 0.000, 0.000, 14:57:11.835
52, 14.29, 110.31, 0.00, 0.00, 0.000, 0.000, 0.000, 14:57:11.835
53, 13.33, 110.49, 0.00, 0.00, 0.000, 0.000, 0.000, 14:57:11.836
54, 18.62, 114.57, 0.00, 0.00, 0.000, 0.000, 0.000, 14:57:11.836
55, 18.10, 111.57, 0.00, 0.00, 0.000, 0.000, 0.000, 14:57:11.851
56, 13.63, 107.77, 0.00, 0.00, 0.000, 0.000, 0.000, 14:57:11.851
57, 14.22, 112.50, 0.00, 0.00, 0.000, 0.000, 0.000, 14:57:11.866
58, 13.86, 113.42, 0.00, 0.00, 0.000, 0.000, 0.000, 14:57:11.866
59, 14.37, 110.18, 0.00, 0.00, 0.000, 0.000, 0.000, 14:57:11.867
60, 14.76, 110.08, 0.00, 0.00, 0.000, 0.000, 0.000, 14:57:11.868
61, 14.30, 113.59, 0.00, 0.00, 0.000, 0.000, 0.000, 14:57:11.880
62, 13.70, 114.48, 0.00, 0.00, 0.000, 0.000, 0.000, 14:57:11.881
63, 15.82, 114.33, 0.00, 0.00, 0.000, 0.000, 0.000, 14:57:11.897
64, 16.11, 111.74, 0.00, 0.00, 0.000, 0.000, 0.000, 14:57:11.897
65, 16.74, 114.21, 0.00, 0.00, 0.000, 0.000, 0.000, 14:57:11.898
66, 18.95, 115.81, 0.00, 0.00, 0.000, 0.000, 0.000, 14:57:11.898
67, 17.26, 113.80, 0.00, 0.00, 0.000, 0.000, 0.000, 14:57:11.910
68, 16.43, 110.78, 0.00, 0.00, 0.000, 0.000, 0.000, 14:57:11.910
69, 14.90, 115.77, 0.00, 0.00, 0.000, 0.000, 0.000, 14:57:11.925
70, 17.09, 122.74, 0.00, 0.00, 0.000, 0.000, 0.000, 14:57:11.925
71, 10.84, 114.76, 0.00, 0.00, 0.000, 0.000, 0.000, 14:57:11.926
72, 7.73, 114.64, 0.00, 0.00, 0.000, 0.000, 0.000, 14:57:11.926
73, 12.03, 117.73, 0.00, 0.00, 0.000, 0.000, 0.000, 14:57:11.939
74, 12.26, 119.40, 0.00, 0.00, 0.000, 0.000, 0.000, 14:57:11.940
75, 14.37, 121.95, 0.00, 0.00, 0.000, 0.000, 0.000, 14:57:11.955
76, 14.86, 118.50, 0.00, 0.00, 0.000, 0.000, 0.000, 14:57:11.955
77, 14.95, 119.20, 0.00, 0.00, 0.000, 0.000, 0.000, 14:57:11.955
78, 15.31, 122.75, 0.00, 0.00, 0.000, 0.000, 0.000, 14:57:11.955
79, 15.59, 118.37, 0.00, 0.00, 0.000, 0.000, 0.000, 14:57:11.969
80, 12.04, 112.21, 0.00, 0.00, 0.000, 0.000, 0.000, 14:57:11.970
81, 13.17, 112.09, 0.00, 0.00, 0.000, 0.000, 0.000, 14:57:11.985
82, 16.85, 117.25, 0.00, 0.00, 0.000, 0.000, 0.000, 14:57:11.985
83, 15.32, 111.02, 0.00, 0.00, 0.000, 0.000, 0.000, 14:57:11.985
84, 15.29, 112.39, 0.00, 0.00, 0.000, 0.000, 0.000, 14:57:11.985
85, 14.75, 115.50, 0.00, 0.00, 0.000, 0.000, 0.000, 14:57:12.000
86, 19.04, 115.40, 0.00, 0.00, 0.000, 0.000, 0.000, 14:57:12.000
87, 17.26, 111.45, 0.00, 0.00, 0.000, 0.000, 0.000, 14:57:12.016
88, 14.29, 112.20, 0.00, 0.00, 0.000, 0.000, 0.000, 14:57:12.016
89, 16.76, 115.24, 0.00, 0.00, 0.000, 0.000, 0.000, 14:57:12.016
90, 19.40, 117.80, 0.00, 0.00, 0.000, 0.000, 0.000, 14:57:12.016
91, 16.59, 113.88, 0.00, 0.00, 0.000, 0.000, 0.000, 14:57:12.030
92, 15.73, 115.21, 0.00, 0.00, 0.000, 0.000, 0.000, 14:57:12.030
93, 24.61, 117.50, 0.00, 0.00, 0.000, 0.000, 0.000, 14:57:12.045
94, 21.61, 120.63, 0.00, 0.00, 0.000, 0.000, 0.000, 14:57:12.045
95, 20.41, 120.33, 0.00, 0.00, 0.000, 0.000, 0.000, 14:57:12.045
96, 15.73, 116.85, 0.00, 0.00, 0.000, 0.000, 0.000, 14:57:12.045
97, 14.33, 119.76, 0.00, 0.00, 0.000, 0.000, 0.000, 14:57:12.060
98, 20.32, 123.47, 0.00, 0.00, 0.000, 0.000, 0.000, 14:57:12.060
99, 16.98, 117.41, 0.00, 0.00, 0.000, 0.000, 0.000, 14:57:12.075
100, 17.23, 113.84, 0.00, 0.00, 0.000, 0.000, 0.000, 14:57:12.075
101, 16.55, 116.17, 0.00, 0.00, 0.000, 0.000, 0.000, 14:57:12.076
102, 22.21, 121.88, 0.00, 0.00, 0.000, 0.000, 0.000, 14:57:12.076
103, 16.13, 118.22, 0.00, 0.00, 0.000, 0.000, 0.000, 14:57:12.090
104, 19.04, 115.79, 0.00, 0.00, 0.000, 0.000, 0.000, 14:57:12.091
105, 19.87, 116.85, 0.00, 0.00, 0.000, 0.000, 0.000, 14:57:12.105
106, 20.75, 120.45, 0.00, 0.00, 0.000, 0.000, 0.000, 14:57:12.105
107, 17.03, 122.89, 0.00, 0.00, 0.000, 0.000, 0.000, 14:57:12.107
108, 15.11, 118.91, 0.00, 0.00, 0.000, 0.000, 0.000, 14:57:12.107
109, 15.48, 116.92, 0.00, 0.00, 0.000, 0.000, 0.000, 14:57:12.120
110, 15.85, 120.86, 0.00, 0.00, 0.000, 0.000, 0.000, 14:57:12.121
111, 18.51, 122.33, 0.00, 0.00, 0.000, 0.000, 0.000, 14:57:12.135
112, 15.16, 113.90, 0.00, 0.00, 0.000, 0.000, 0.000, 14:57:12.136
113, 15.00, 117.12, 0.00, 0.00, 0.000, 0.000, 0.000, 14:57:12.136
114, 15.01, 124.21, 0.00, 0.00, 0.000, 0.000, 0.000, 14:57:12.136
115, 12.77, 120.21, 0.00, 0.00, 0.000, 0.000, 0.000, 14:57:12.150
116, 15.42, 117.14, 0.00, 0.00, 0.000, 0.000, 0.000, 14:57:12.150
117, 16.51, 120.19, 0.00, 0.00, 0.000, 0.000, 0.000, 14:57:12.165
118, 19.60, 121.45, 0.00, 0.00, 0.000, 0.000, 0.000, 14:57:12.165
119, 11.80, 123.02, 0.00, 0.00, 0.000, 0.000, 0.000, 14:57:12.165
120, 13.02, 119.40, 0.00, 0.00, 0.000, 0.000, 0.000, 14:57:12.165
121, 14.28, 120.72, 0.00, 0.00, 0.000, 0.000, 0.000, 14:57:12.180
122, 17.99, 121.88, 0.00, 0.00, 0.000, 0.000, 0.000, 14:57:12.180
123, 13.69, 119.95, 0.00, 0.00, 0.000, 0.000, 0.000, 14:57:12.195
124, 7.92, 116.43, 0.00, 0.00, 0.000, 0.000, 0.000, 14:57:12.195
125, 10.92, 117.30, 0.00, 0.00, 0.000, 0.000, 0.000, 14:57:12.195
126, 12.67, 116.73, 0.00, 0.00, 0.000, 0.000, 0.000, 14:57:12.195
127, 14.59, 116.07, 0.00, 0.00, 0.000, 0.000, 0.000, 14:57:12.210
128, 10.60, 113.94, 0.00, 0.00, 0.000, 0.000, 0.000, 14:57:12.210
129, 9.41, 118.33, 0.00, 0.00, 0.000, 0.000, 0.000, 14:57:12.225
130, 10.63, 125.00, 0.00, 0.00, 0.000, 0.000, 0.000, 14:57:12.225
131, 11.18, 123.11, 0.00, 0.00, 0.000, 0.000, 0.000, 14:57:12.226
132, 9.51, 123.64, 0.00, 0.00, 0.000, 0.000, 0.000, 14:57:12.226
133, 13.38, 123.81, 0.00, 0.00, 0.000, 0.000, 0.000, 14:57:12.240
134, 13.80, 124.42, 0.00, 0.00, 0.000, 0.000, 0.000, 14:57:12.240
135, 14.48, 121.63, 0.00, 0.00, 0.000, 0.000, 0.000, 14:57:12.256
136, 10.43, 116.77, 0.00, 0.00, 0.000, 0.000, 0.000, 14:57:12.256
137, 14.62, 119.04, 0.00, 0.00, 0.000, 0.000, 0.000, 14:57:12.270
138, 18.85, 121.92, 0.00, 0.00, 0.000, 0.000, 0.000, 14:57:12.270
139, 18.20, 123.00, 0.00, 0.00, 0.000, 0.000, 0.000, 14:57:12.270
140, 13.93, 118.32, 0.00, 0.00, 0.000, 0.000, 0.000, 14:57:12.270
141, 15.09, 123.20, 0.00, 0.00, 0.000, 0.000, 0.000, 14:57:12.285
142, 17.33, 126.26, 0.00, 0.00, 0.000, 0.000, 0.000, 14:57:12.286
143, 19.82, 122.24, 0.00, 0.00, 0.000, 0.000, 0.000, 14:57:12.286
144, 17.51, 111.29, 0.00, 0.00, 0.000, 0.000, 0.000, 14:57:12.286
145, 20.10, 117.28, 0.00, 0.00, 0.000, 0.000, 0.000, 14:57:12.300
146, 18.50, 118.24, 0.00, 0.00, 0.000, 0.000, 0.000, 14:57:12.300
147, 19.09, 112.15, 0.00, 0.00, 0.000, 0.000, 0.000, 14:57:12.314
148, 16.70, 113.08, 0.00, 0.00, 0.000, 0.000, 0.000, 14:57:12.314
149, 15.68, 114.23, 0.00, 0.00, 0.000, 0.000, 0.000, 14:57:12.324
150, 15.16, 119.22, 0.00, 0.00, 0.000, 0.000, 0.000, 14:57:12.324
151, 14.34, 111.48, 0.00, 0.00, 0.000, 0.000, 0.000, 14:57:12.329
152, 15.17, 109.61, 0.00, 0.00, 0.000, 0.000, 0.000, 14:57:12.330
153, 19.25, 114.32, 0.00, 0.00, 0.000, 0.000, 0.000, 14:57:12.345
154, 19.70, 118.76, 0.00, 0.00, 0.000, 0.000, 0.000, 14:57:12.345
155, 18.44, 117.01, 0.00, 0.00, 0.000, 0.000, 0.000, 14:57:12.345
156, 19.44, 114.22, 0.00, 0.00, 0.000, 0.000, 0.000, 14:57:12.345
157, 18.40, 120.20, 0.00, 0.00, 0.000, 0.000, 0.000, 14:57:12.360
158, 19.66, 117.24, 0.00, 0.00, 0.000, 0.000, 0.000, 14:57:12.360
159, 18.31, 120.45, 0.00, 0.00, 0.000, 0.000, 0.000, 14:57:12.375
160, 16.45, 118.44, 0.00, 0.00, 0.000, 0.000, 0.000, 14:57:12.375
161, 17.12, 122.11, 0.00, 0.00, 0.000, 0.000, 0.000, 14:57:12.375
162, 17.08, 124.68, 0.00, 0.00, 0.000, 0.000, 0.000, 14:57:12.375
163, 12.83, 124.82, 0.00, 0.00, 0.000, 0.000, 0.000, 14:57:12.390
164, 14.08, 123.72, 0.00, 0.00, 0.000, 0.000, 0.000, 14:57:12.390
165, 10.20, 127.24, 0.00, 0.00, 0.000, 0.000, 0.000, 14:57:12.405
166, 18.06, 126.86, 0.00, 0.00, 0.000, 0.000, 0.000, 14:57:12.405
167, 14.20, 123.88, 0.00, 0.00, 0.000, 0.000, 0.000, 14:57:12.405
168, 17.41, 123.24, 0.00, 0.00, 0.000, 0.000, 0.000, 14:57:12.405
169, 14.62, 123.92, 0.00, 0.00, 0.000, 0.000, 0.000, 14:57:12.419
170, 14.89, 125.79, 0.00, 0.00, 0.000, 0.000, 0.000, 14:57:12.420
171, 10.77, 125.23, 0.00, 0.00, 0.000, 0.000, 0.000, 14:57:12.436
172, 14.73, 123.51, 0.00, 0.00, 0.000, 0.000, 0.000, 14:57:12.436
173, 15.16, 125.42, 0.00, 0.00, 0.000, 0.000, 0.000, 14:57:12.436
174, 9.37, 125.93, 0.00, 0.00, 0.000, 0.000, 0.000, 14:57:12.436
175, 10.35, 120.89, 0.00, 0.00, 0.000, 0.000, 0.000, 14:57:12.450
176, 11.67, 116.64, 0.00, 0.00, 0.000, 0.000, 0.000, 14:57:12.450
177, 12.11, 123.29, 0.00, 0.00, 0.000, 0.000, 0.000, 14:57:12.465
178, 14.96, 126.66, 0.00, 0.00, 0.000, 0.000, 0.000, 14:57:12.466
179, 12.21, 120.45, 0.00, 0.00, 0.000, 0.000, 0.000, 14:57:12.466
180, 11.19, 118.27, 0.00, 0.00, 0.000, 0.000, 0.000, 14:57:12.466
181, 13.99, 121.08, 0.00, 0.00, 0.000, 0.000, 0.000, 14:57:12.484
182, 14.37, 121.19, 0.00, 0.00, 0.000, 0.000, 0.000, 14:57:12.485
183, 14.71, 119.30, 0.00, 0.00, 0.000, 0.000, 0.000, 14:57:12.495
184, 18.50, 118.17, 0.00, 0.00, 0.000, 0.000, 0.000, 14:57:12.495
185, 18.05, 118.09, 0.00, 0.00, 0.000, 0.000, 0.000, 14:57:12.496
186, 19.57, 122.26, 0.00, 0.00, 0.000, 0.000, 0.000, 14:57:12.496
187, 20.15, 121.26, 0.00, 0.00, 0.000, 0.000, 0.000, 14:57:12.510
188, 19.54, 115.65, 0.00, 0.00, 0.000, 0.000, 0.000, 14:57:12.511
189, 18.91, 115.74, 0.00, 0.00, 0.000, 0.000, 0.000, 14:57:12.524
190, 17.75, 118.17, 0.00, 0.00, 0.000, 0.000, 0.000, 14:57:12.525
191, 18.94, 120.43, 0.00, 0.00, 0.000, 0.000, 0.000, 14:57:12.525
192, 20.72, 120.62, 0.00, 0.00, 0.000, 0.000, 0.000, 14:57:12.526
193, 18.77, 123.75, 0.00, 0.00, 0.000, 0.000, 0.000, 14:57:12.540
194, 18.86, 123.52, 0.00, 0.00, 0.000, 0.000, 0.000, 14:57:12.540
195, 14.48, 120.91, 0.00, 0.00, 0.000, 0.000, 0.000, 14:57:12.554
196, 17.24, 117.92, 0.00, 0.00, 0.000, 0.000, 0.000, 14:57:12.555
197, 15.90, 119.70, 0.00, 0.00, 0.000, 0.000, 0.000, 14:57:12.556
198, 20.48, 116.94, 0.00, 0.00, 0.000, 0.000, 0.000, 14:57:12.556
199, 14.14, 111.88, 0.00, 0.00, 0.000, 0.000, 0.000, 14:57:12.570
200, 16.52, 112.02, 0.00, 0.00, 0.000, 0.000, 0.000, 14:57:12.571
0, 18.74, 115.68, 0.00, 0.00, 0.000, 0.000, 0.000, 14:57:12.571
1, 23.46, 119.26, 0.00, 0.00, 0.000, 0.000, 0.000, 14:57:12.601
2, 20.83, 120.97, 0.00, 0.00, 0.000, 0.000, 0.000, 14:57:12.602
3, 17.90, 115.88, 0.00, 0.00, 0.000, 0.000, 0.000, 14:57:12.602
4, 20.07, 121.20, 0.00, 0.00, 0.000, 0.000, 0.000, 14:57:12.602
5, 19.04, 123.00, 0.00, 0.00, 0.000, 0.000, 0.000, 14:57:12.602
6, 17.92, 119.33, 0.00, 0.00, 0.000, 0.000, 0.000, 14:57:12.602
7, 13.89, 114.04, 0.00, 0.00, 0.000, 0.000, 0.000, 14:57:12.615
8, 15.57, 115.89, 0.00, 0.00, 0.000, 0.000, 0.000, 14:57:12.615
9, 16.66, 119.11, 0.00, 0.00, 0.000, 0.000, 0.000, 14:57:12.631
10, 15.76, 119.62, 0.00, 0.00, 0.000, 0.000, 0.000, 14:57:12.631
11, 16.08, 115.84, 0.00, 0.00, 0.000, 0.000, 0.000, 14:57:12.631
12, 14.07, 118.67, 0.00, 0.00, 0.000, 0.000, 0.000, 14:57:12.632
13, 16.54, 125.46, 0.00, 0.00, 0.000, 0.000, 0.000, 14:57:12.645
14, 17.52, 121.72, 0.00, 0.00, 0.000, 0.000, 0.000, 14:57:12.646
15, 13.13, 121.04, 0.00, 0.00, 0.000, 0.000, 0.000, 14:57:12.661
16, 16.46, 123.56, 0.00, 0.00, 0.000, 0.000, 0.000, 14:57:12.661
17, 13.33, 129.08, 0.00, 0.00, 0.000, 0.000, 0.000, 14:57:12.661
18, 16.39, 122.39, 0.00, 0.00, 0.000, 0.000, 0.000, 14:57:12.661
19, 14.29, 124.39, 0.00, 0.00, 0.000, 0.000, 0.000, 14:57:12.675
20, 12.61, 124.33, 0.00, 0.00, 0.000, 0.000, 0.000, 14:57:12.675
21, 14.06, 124.38, 0.00, 0.00, 0.000, 0.000, 0.000, 14:57:12.691
22, 11.40, 122.44, 0.00, 0.00, 0.000, 0.000, 0.000, 14:57:12.691
23, 7.84, 117.01, 0.00, 0.00, 0.000, 0.000, 0.000, 14:57:12.692
24, 10.97, 118.97, 0.00, 0.00, 0.000, 0.000, 0.000, 14:57:12.692
25, 18.74, 126.21, 0.00, 0.00, 0.000, 0.000, 0.000, 14:57:12.705
26, 15.52, 121.17, 0.00, 0.00, 0.000, 0.000, 0.000, 14:57:12.705
27, 16.17, 115.87, 0.00, 0.00, 0.000, 0.000, 0.000, 14:57:12.720
28, 13.70, 117.49, 0.00, 0.00, 0.000, 0.000, 0.000, 14:57:12.720
29, 16.63, 121.82, 0.00, 0.00, 0.000, 0.000, 0.000, 14:57:12.720
30, 15.79, 121.62, 0.00, 0.00, 0.000, 0.000, 0.000, 14:57:12.721
31, 10.84, 118.71, 0.00, 0.00, 0.000, 0.000, 0.000, 14:57:12.734
32, 14.78, 117.38, 0.00, 0.00, 0.000, 0.000, 0.000, 14:57:12.735
33, 20.32, 121.14, 0.00, 0.00, 0.000, 0.000, 0.000, 14:57:12.749
34, 16.14, 112.26, 0.00, 0.00, 0.000, 0.000, 0.000, 14:57:12.749
35, 14.04, 114.95, 0.00, 0.00, 0.000, 0.000, 0.000, 14:57:12.749
36, 14.18, 116.03, 0.00, 0.00, 0.000, 0.000, 0.000, 14:57:12.750
37, 20.20, 120.87, 0.00, 0.00, 0.000, 0.000, 0.000, 14:57:12.765
38, 16.18, 118.31, 0.00, 0.00, 0.000, 0.000, 0.000, 14:57:12.765
39, 12.33, 116.56, 0.00, 0.00, 0.000, 0.000, 0.000, 14:57:12.782
40, 20.20, 117.52, 0.00, 0.00, 0.000, 0.000, 0.000, 14:57:12.782
41, 22.67, 115.44, 0.00, 0.00, 0.000, 0.000, 0.000, 14:57:12.783
42, 18.06, 110.07, 0.00, 0.00, 0.000, 0.000, 0.000, 14:57:12.783
43, 17.98, 114.39, 0.00, 0.00, 0.000, 0.000, 0.000, 14:57:12.795
44, 17.36, 115.86, 0.00, 0.00, 0.000, 0.000, 0.000, 14:57:12.795
45, 20.22, 118.91, 0.00, 0.00, 0.000, 0.000, 0.000, 14:57:12.810
46, 15.72, 115.65, 0.00, 0.00, 0.000, 0.000, 0.000, 14:57:12.810
47, 14.23, 112.46, 0.00, 0.00, 0.000, 0.000, 0.000, 14:57:12.818
48, 17.03, 115.93, 0.00, 0.00, 0.000, 0.000, 0.000, 14:57:12.818
49, 19.77, 121.80, 0.00, 0.00, 0.000, 0.000, 0.000, 14:57:12.825
50, 21.30, 119.33, 0.00, 0.00, 0.000, 0.000, 0.000, 14:57:12.825
51, 18.47, 122.28, 0.00, 0.00, 0.000, 0.000, 0.000, 14:57:12.840
52, 20.55, 122.40, 0.00, 0.00, 0.000, 0.000, 0.000, 14:57:12.840
53, 20.61, 124.23, 0.00, 0.00, 0.000, 0.000, 0.000, 14:57:12.840
54, 15.06, 119.52, 0.00, 0.00, 0.000, 0.000, 0.000, 14:57:12.840
55, 17.18, 114.41, 0.00, 0.00, 0.000, 0.000, 0.000, 14:57:12.856
56, 19.32, 114.44, 0.00, 0.00, 0.000, 0.000, 0.000, 14:57:12.856
57, 18.45, 115.51, 0.00, 0.00, 0.000, 0.000, 0.000, 14:57:12.870
58, 17.44, 116.05, 0.00, 0.00, 0.000, 0.000, 0.000, 14:57:12.871
59, 17.57, 111.53, 0.00, 0.00, 0.000, 0.000, 0.000, 14:57:12.871
60, 17.95, 113.25, 0.00, 0.00, 0.000, 0.000, 0.000, 14:57:12.872
61, 19.15, 116.86, 0.00, 0.00, 0.000, 0.000, 0.000, 14:57:12.885
62, 14.79, 117.78, 0.00, 0.00, 0.000, 0.000, 0.000, 14:57:12.886
63, 13.62, 116.07, 0.00, 0.00, 0.000, 0.000, 0.000, 14:57:12.900
64, 17.01, 119.11, 0.00, 0.00, 0.000, 0.000, 0.000, 14:57:12.900
65, 23.44, 121.66, 0.00, 0.00, 0.000, 0.000, 0.000, 14:57:12.901
66, 13.57, 119.82, 0.00, 0.00, 0.000, 0.000, 0.000, 14:57:12.901
67, 15.11, 116.11, 0.00, 0.00, 0.000, 0.000, 0.000, 14:57:12.915
68, 17.95, 119.57, 0.00, 0.00, 0.000, 0.000, 0.000, 14:57:12.915
69, 20.57, 123.46, 0.00, 0.00, 0.000, 0.000, 0.000, 14:57:12.929
70, 15.90, 122.03, 0.00, 0.00, 0.000, 0.000, 0.000, 14:57:12.930
71, 17.13, 120.35, 0.00, 0.00, 0.000, 0.000, 0.000, 14:57:12.930
72, 16.26, 123.39, 0.00, 0.00, 0.000, 0.000, 0.000, 14:57:12.930
73, 14.43, 126.56, 0.00, 0.00, 0.000, 0.000, 0.000, 14:57:12.945
74, 15.13, 124.03, 0.00, 0.00, 0.000, 0.000, 0.000, 14:57:12.945
75, 13.03, 119.98, 0.00, 0.00, 0.000, 0.000, 0.000, 14:57:12.960
76, 14.90, 123.17, 0.00, 0.00, 0.000, 0.000, 0.000, 14:57:12.960
77, 19.18, 125.77, 0.00, 0.00, 0.000, 0.000, 0.000, 14:57:12.961
78, 16.31, 122.19, 0.00, 0.00, 0.000, 0.000, 0.000, 14:57:12.961
79, 14.72, 123.85, 0.00, 0.00, 0.000, 0.000, 0.000, 14:57:12.975
80, 14.20, 122.35, 0.00, 0.00, 0.000, 0.000, 0.000, 14:57:12.975
81, 18.59, 125.39, 0.00, 0.00, 0.000, 0.000, 0.000, 14:57:12.989
82, 14.42, 120.85, 0.00, 0.00, 0.000, 0.000, 0.000, 14:57:12.989
83, 12.51, 122.09, 0.00, 0.00, 0.000, 0.000, 0.000, 14:57:12.990
84, 16.09, 121.48, 0.00, 0.00, 0.000, 0.000, 0.000, 14:57:12.990
85, 19.57, 122.51, 0.00, 0.00, 0.000, 0.000, 0.000, 14:57:13.005
86, 15.48, 122.93, 0.00, 0.00, 0.000, 0.000, 0.000, 14:57:13.005
87, 15.33, 116.31, 0.00, 0.00, 0.000, 0.000, 0.000, 14:57:13.020
88, 21.12, 119.21, 0.00, 0.00, 0.000, 0.000, 0.000, 14:57:13.020
89, 21.51, 122.46, 0.00, 0.00, 0.000, 0.000, 0.000, 14:57:13.020
90, 16.82, 121.21, 0.00, 0.00, 0.000, 0.000, 0.000, 14:57:13.020
91, 17.12, 120.40, 0.00, 0.00, 0.000, 0.000, 0.000, 14:57:13.037
92, 16.91, 125.16, 0.00, 0.00, 0.000, 0.000, 0.000, 14:57:13.038
93, 20.69, 126.75, 0.00, 0.00, 0.000, 0.000, 0.000, 14:57:13.051
94, 18.85, 122.71, 0.00, 0.00, 0.000, 0.000, 0.000, 14:57:13.051
95, 15.12, 119.05, 0.00, 0.00, 0.000, 0.000, 0.000, 14:57:13.051
96, 18.13, 119.10, 0.00, 0.00, 0.000, 0.000, 0.000, 14:57:13.051
97, 20.92, 123.15, 0.00, 0.00, 0.000, 0.000, 0.000, 14:57:13.066
98, 18.28, 117.80, 0.00, 0.00, 0.000, 0.000, 0.000, 14:57:13.066
99, 12.18, 110.79, 0.00, 0.00, 0.000, 0.000, 0.000, 14:57:13.080
100, 16.81, 117.05, 0.00, 0.00, 0.000, 0.000, 0.000, 14:57:13.080
101, 18.93, 121.89, 0.00, 0.00, 0.000, 0.000, 0.000, 14:57:13.080
102, 17.78, 121.84, 0.00, 0.00, 0.000, 0.000, 0.000, 14:57:13.080
103, 17.52, 116.87, 0.00, 0.00, 0.000, 0.000, 0.000, 14:57:13.095
104, 15.02, 116.95, 0.00, 0.00, 0.000, 0.000, 0.000, 14:57:13.095
105, 20.88, 119.78, 0.00, 0.00, 0.000, 0.000, 0.000, 14:57:13.111
106, 19.54, 122.90, 0.00, 0.00, 0.000, 0.000, 0.000, 14:57:13.111
107, 14.74, 114.30, 0.00, 0.00, 0.000, 0.000, 0.000, 14:57:13.111
108, 20.29, 116.66, 0.00, 0.00, 0.000, 0.000, 0.000, 14:57:13.111
109, 18.75, 119.60, 0.00, 0.00, 0.000, 0.000, 0.000, 14:57:13.125
110, 17.23, 120.11, 0.00, 0.00, 0.000, 0.000, 0.000, 14:57:13.125
111, 13.55, 114.17, 0.00, 0.00, 0.000, 0.000, 0.000, 14:57:13.140
112, 14.98, 117.53, 0.00, 0.00, 0.000, 0.000, 0.000, 14:57:13.140
113, 16.67, 122.12, 0.00, 0.00, 0.000, 0.000, 0.000, 14:57:13.140
114, 17.11, 115.53, 0.00, 0.00, 0.000, 0.000, 0.000, 14:57:13.140
115, 16.07, 118.05, 0.00, 0.00, 0.000, 0.000, 0.000, 14:57:13.155
116, 17.01, 116.69, 0.00, 0.00, 0.000, 0.000, 0.000, 14:57:13.155
117, 20.30, 121.72, 0.00, 0.00, 0.000, 0.000, 0.000, 14:57:13.170
118, 18.39, 122.02, 0.00, 0.00, 0.000, 0.000, 0.000, 14:57:13.171
119, 19.85, 117.49, 0.00, 0.00, 0.000, 0.000, 0.000, 14:57:13.171
120, 16.14, 119.57, 0.00, 0.00, 0.000, 0.000, 0.000, 14:57:13.171
121, 20.96, 127.31, 0.00, 0.00, 0.000, 0.000, 0.000, 14:57:13.185
122, 19.80, 123.58, 0.00, 0.00, 0.000, 0.000, 0.000, 14:57:13.186
123, 18.53, 118.52, 0.00, 0.00, 0.000, 0.000, 0.000, 14:57:13.200
124, 18.43, 125.56, 0.00, 0.00, 0.000, 0.000, 0.000, 14:57:13.200
125, 22.68, 121.88, 0.00, 0.00, 0.000, 0.000, 0.000, 14:57:13.207
126, 19.87, 122.37, 0.00, 0.00, 0.000, 0.000, 0.000, 14:57:13.207
127, 20.29, 118.44, 0.00, 0.00, 0.000, 0.000, 0.000, 14:57:13.214
128, 16.41, 122.35, 0.00, 0.00, 0.000, 0.000, 0.000, 14:57:13.214
129, 22.23, 125.38, 0.00, 0.00, 0.000, 0.000, 0.000, 14:57:13.230
130, 23.95, 120.97, 0.00, 0.00, 0.000, 0.000, 0.000, 14:57:13.230
131, 21.82, 120.26, 0.00, 0.00, 0.000, 0.000, 0.000, 14:57:13.231
132, 22.12, 122.98, 0.00, 0.00, 0.000, 0.000, 0.000, 14:57:13.231
133, 21.62, 123.03, 0.00, 0.00, 0.000, 0.000, 0.000, 14:57:13.245
134, 17.86, 120.90, 0.00, 0.00, 0.000, 0.000, 0.000, 14:57:13.245
135, 19.93, 121.69, 0.00, 0.00, 0.000, 0.000, 0.000, 14:57:13.260
136, 20.26, 121.60, 0.00, 0.00, 0.000, 0.000, 0.000, 14:57:13.260
137, 17.49, 125.10, 0.00, 0.00, 0.000, 0.000, 0.000, 14:57:13.261
138, 18.62, 122.17, 0.00, 0.00, 0.000, 0.000, 0.000, 14:57:13.261
139, 14.56, 121.12, 0.00, 0.00, 0.000, 0.000, 0.000, 14:57:13.275
140, 19.45, 120.90, 0.00, 0.00, 0.000, 0.000, 0.000, 14:57:13.275
141, 19.15, 124.82, 0.00, 0.00, 0.000, 0.000, 0.000, 14:57:13.290
142, 15.17, 120.20, 0.00, 0.00, 0.000, 0.000, 0.000, 14:57:13.290
143, 14.16, 120.60, 0.00, 0.00, 0.000, 0.000, 0.000, 14:57:13.291
144, 17.03, 120.29, 0.00, 0.00, 0.000, 0.000, 0.000, 14:57:13.291
145, 17.29, 122.00, 0.00, 0.00, 0.000, 0.000, 0.000, 14:57:13.306
146, 16.50, 124.02, 0.00, 0.00, 0.000, 0.000, 0.000, 14:57:13.306
147, 11.51, 121.86, 0.00, 0.00, 0.000, 0.000, 0.000, 14:57:13.320
148, 12.01, 124.08, 0.00, 0.00, 0.000, 0.000, 0.000, 14:57:13.320
149, 14.95, 123.53, 0.00, 0.00, 0.000, 0.000, 0.000, 14:57:13.320
150, 14.44, 122.55, 0.00, 0.00, 0.000, 0.000, 0.000, 14:57:13.321
151, 9.45, 123.84, 0.00, 0.00, 0.000, 0.000, 0.000, 14:57:13.337
152, 12.83, 121.22, 0.00, 0.00, 0.000, 0.000, 0.000, 14:57:13.338
153, 11.76, 125.41, 0.00, 0.00, 0.000, 0.000, 0.000, 14:57:13.350
154, 11.35, 127.90, 0.00, 0.00, 0.000, 0.000, 0.000, 14:57:13.350
155, 7.87, 122.62, 0.00, 0.00, 0.000, 0.000, 0.000, 14:57:13.351
156, 11.53, 124.49, 0.00, 0.00, 0.000, 0.000, 0.000, 14:57:13.351
157, 14.93, 127.45, 0.00, 0.00, 0.000, 0.000, 0.000, 14:57:13.365
158, 12.84, 124.35, 0.00, 0.00, 0.000, 0.000, 0.000, 14:57:13.365
159, 10.63, 120.99, 0.00, 0.00, 0.000, 0.000, 0.000, 14:57:13.381
160, 13.48, 127.20, 0.00, 0.00, 0.000, 0.000, 0.000, 14:57:13.381
161, 10.68, 127.69, 0.00, 0.00, 0.000, 0.000, 0.000, 14:57:13.381
162, 12.20, 124.93, 0.00, 0.00, 0.000, 0.000, 0.000, 14:57:13.381
163, 12.91, 125.73, 0.00, 0.00, 0.000, 0.000, 0.000, 14:57:13.395
164, 13.58, 127.33, 0.00, 0.00, 0.000, 0.000, 0.000, 14:57:13.395
165, 13.21, 122.22, 0.00, 0.00, 0.000, 0.000, 0.000, 14:57:13.410
166, 15.96, 123.13, 0.00, 0.00, 0.000, 0.000, 0.000, 14:57:13.410
167, 12.67, 116.97, 0.00, 0.00, 0.000, 0.000, 0.000, 14:57:13.410
168, 11.99, 123.97, 0.00, 0.00, 0.000, 0.000, 0.000, 14:57:13.410
169, 15.18, 125.75, 0.00, 0.00, 0.000, 0.000, 0.000, 14:57:13.425
170, 15.34, 122.97, 0.00, 0.00, 0.000, 0.000, 0.000, 14:57:13.425
171, 16.39, 122.17, 0.00, 0.00, 0.000, 0.000, 0.000, 14:57:13.440
172, 14.71, 123.65, 0.00, 0.00, 0.000, 0.000, 0.000, 14:57:13.440
173, 11.14, 124.96, 0.00, 0.00, 0.000, 0.000, 0.000, 14:57:13.440
174, 12.47, 121.37, 0.00, 0.00, 0.000, 0.000, 0.000, 14:57:13.440
175, 11.08, 122.71, 0.00, 0.00, 0.000, 0.000, 0.000, 14:57:13.455
176, 11.28, 126.76, 0.00, 0.00, 0.000, 0.000, 0.000, 14:57:13.455
177, 12.64, 125.26, 0.00, 0.00, 0.000, 0.000, 0.000, 14:57:13.470
178, 17.52, 123.76, 0.00, 0.00, 0.000, 0.000, 0.000, 14:57:13.470
179, 15.06, 120.25, 0.00, 0.00, 0.000, 0.000, 0.000, 14:57:13.471
180, 14.53, 126.87, 0.00, 0.00, 0.000, 0.000, 0.000, 14:57:13.471
181, 17.92, 128.04, 0.00, 0.00, 0.000, 0.000, 0.000, 14:57:13.486
182, 15.72, 124.83, 0.00, 0.00, 0.000, 0.000, 0.000, 14:57:13.486
183, 15.20, 123.00, 0.00, 0.00, 0.000, 0.000, 0.000, 14:57:13.500
184, 12.71, 128.77, 0.00, 0.00, 0.000, 0.000, 0.000, 14:57:13.501
185, 17.98, 128.92, 0.00, 0.00, 0.000, 0.000, 0.000, 14:57:13.501
186, 17.87, 125.09, 0.00, 0.00, 0.000, 0.000, 0.000, 14:57:13.501
187, 11.65, 123.14, 0.00, 0.00, 0.000, 0.000, 0.000, 14:57:13.515
188, 17.25, 126.24, 0.00, 0.00, 0.000, 0.000, 0.000, 14:57:13.516
189, 16.18, 125.22, 0.00, 0.00, 0.000, 0.000, 0.000, 14:57:13.529
190, 15.57, 124.34, 0.00, 0.00, 0.000, 0.000, 0.000, 14:57:13.529
191, 11.54, 120.34, 0.00, 0.00, 0.000, 0.000, 0.000, 14:57:13.530
192, 13.65, 123.57, 0.00, 0.00, 0.000, 0.000, 0.000, 14:57:13.530
193, 17.29, 127.57, 0.00, 0.00, 0.000, 0.000, 0.000, 14:57:13.545
194, 16.13, 123.26, 0.00, 0.00, 0.000, 0.000, 0.000, 14:57:13.545
195, 15.35, 119.26, 0.00, 0.00, 0.000, 0.000, 0.000, 14:57:13.560
196, 14.17, 122.85, 0.00, 0.00, 0.000, 0.000, 0.000, 14:57:13.561
197, 18.39, 121.92, 0.00, 0.00, 0.000, 0.000, 0.000, 14:57:13.561
198, 19.38, 123.12, 0.00, 0.00, 0.000, 0.000, 0.000, 14:57:13.561
199, 14.74, 123.27, 0.00, 0.00, 0.000, 0.000, 0.000, 14:57:13.575
200, 14.75, 123.36, 0.00, 0.00, 0.000, 0.000, 0.000, 14:57:13.576
0, 18.46, 127.14, 0.00, 0.00, 0.000, 0.000, 0.000, 14:57:13.576
1, 17.23, 123.47, 0.00, 0.00, 0.000, 0.000, 0.000, 14:57:13.596
2, 14.18, 121.17, 0.00, 0.00, 0.000, 0.000, 0.000, 14:57:13.597
3, 14.21, 120.96, 0.00, 0.00, 0.000, 0.000, 0.000, 14:57:13.605
4, 14.54, 124.83, 0.00, 0.00, 0.000, 0.000, 0.000, 14:57:13.606
5, 11.62, 121.40, 0.00, 0.00, 0.000, 0.000, 0.000, 14:57:13.606
6, 11.97, 119.26, 0.00, 0.00, 0.000, 0.000, 0.000, 14:57:13.606
7, 9.90, 122.81, 0.00, 0.00, 0.000, 0.000, 0.000, 14:57:13.620
8, 17.30, 123.28, 0.00, 0.00, 0.000, 0.000, 0.000, 14:57:13.620
9, 11.93, 122.40, 0.00, 0.00, 0.000, 0.000, 0.000, 14:57:13.635
10, 10.41, 119.46, 0.00, 0.00, 0.000, 0.000, 0.000, 14:57:13.635
11, 10.51, 123.71, 0.00, 0.00, 0.000, 0.000, 0.000, 14:57:13.636
12, 14.15, 126.41, 0.00, 0.00, 0.000, 0.000, 0.000, 14:57:13.636
13, 12.16, 127.20, 0.00, 0.00, 0.000, 0.000, 0.000, 14:57:13.650
14, 10.21, 123.39, 0.00, 0.00, 0.000, 0.000, 0.000, 14:57:13.650
15, 10.28, 124.41, 0.00, 0.00, 0.000, 0.000, 0.000, 14:57:13.665
16, 12.64, 126.61, 0.00, 0.00, 0.000, 0.000, 0.000, 14:57:13.665
17, 14.53, 122.43, 0.00, 0.00, 0.000, 0.000, 0.000, 14:57:13.665
18, 13.62, 125.80, 0.00, 0.00, 0.000, 0.000, 0.000, 14:57:13.665
19, 13.16, 127.95, 0.00, 0.00, 0.000, 0.000, 0.000, 14:57:13.680
20, 13.66, 124.40, 0.00, 0.00, 0.000, 0.000, 0.000, 14:57:13.681
21, 14.01, 124.13, 0.00, 0.00, 0.000, 0.000, 0.000, 14:57:13.695
22, 14.81, 122.84, 0.00, 0.00, 0.000, 0.000, 0.000, 14:57:13.695
23, 13.23, 124.20, 0.00, 0.00, 0.000, 0.000, 0.000, 14:57:13.696
24, 12.42, 127.72, 0.00, 0.00, 0.000, 0.000, 0.000, 14:57:13.696
25, 10.24, 125.25, 0.00, 0.00, 0.000, 0.000, 0.000, 14:57:13.710
26, 12.44, 124.19, 0.00, 0.00, 0.000, 0.000, 0.000, 14:57:13.710
27, 19.11, 126.34, 0.00, 0.00, 0.000, 0.000, 0.000, 14:57:13.725
28, 17.04, 128.57, 0.00, 0.00, 0.000, 0.000, 0.000, 14:57:13.725
29, 17.94, 124.16, 0.00, 0.00, 0.000, 0.000, 0.000, 14:57:13.726
30, 12.89, 119.47, 0.00, 0.00, 0.000, 0.000, 0.000, 14:57:13.726
31, 16.84, 122.44, 0.00, 0.00, 0.000, 0.000, 0.000, 14:57:13.741
32, 19.22, 125.63, 0.00, 0.00, 0.000, 0.000, 0.000, 14:57:13.741
33, 17.66, 122.77, 0.00, 0.00, 0.000, 0.000, 0.000, 14:57:13.755
34, 17.24, 123.04, 0.00, 0.00, 0.000, 0.000, 0.000, 14:57:13.756
35, 17.33, 122.57, 0.00, 0.00, 0.000, 0.000, 0.000, 14:57:13.756
36, 24.79, 125.94, 0.00, 0.00, 0.000, 0.000, 0.000, 14:57:13.756
37, 21.70, 124.58, 0.00, 0.00, 0.000, 0.000, 0.000, 14:57:13.770
38, 18.24, 117.46, 0.00, 0.00, 0.000, 0.000, 0.000, 14:57:13.771
39, 18.60, 122.70, 0.00, 0.00, 0.000, 0.000, 0.000, 14:57:13.785
40, 19.94, 126.11, 0.00, 0.00, 0.000, 0.000, 0.000, 14:57:13.785
41, 15.77, 121.24, 0.00, 0.00, 0.000, 0.000, 0.000, 14:57:13.785
42, 13.56, 121.00, 0.00, 0.00, 0.000, 0.000, 0.000, 14:57:13.785
43, 16.42, 123.11, 0.00, 0.00, 0.000, 0.000, 0.000, 14:57:13.800
44, 16.38, 123.63, 0.00, 0.00, 0.000, 0.000, 0.000, 14:57:13.801
45, 16.32, 121.89, 0.00, 0.00, 0.000, 0.000, 0.000, 14:57:13.814
46, 11.99, 120.10, 0.00, 0.00, 0.000, 0.000, 0.000, 14:57:13.815
47, 12.61, 124.66, 0.00, 0.00, 0.000, 0.000, 0.000, 14:57:13.815
48, 17.41, 123.21, 0.00, 0.00, 0.000, 0.000, 0.000, 14:57:13.815
49, 18.54, 118.30, 0.00, 0.00, 0.000, 0.000, 0.000, 14:57:13.832
50, 14.64, 110.71, 0.00, 0.00, 0.000, 0.000, 0.000, 14:57:13.832
51, 15.50, 115.68, 0.00, 0.00, 0.000, 0.000, 0.000, 14:57:13.846
52, 18.89, 117.29, 0.00, 0.00, 0.000, 0.000, 0.000, 14:57:13.846
53, 18.11, 120.39, 0.00, 0.00, 0.000, 0.000, 0.000, 14:57:13.846
54, 17.95, 113.63, 0.00, 0.00, 0.000, 0.000, 0.000, 14:57:13.846
55, 15.01, 116.97, 0.00, 0.00, 0.000, 0.000, 0.000, 14:57:13.860
56, 16.78, 118.81, 0.00, 0.00, 0.000, 0.000, 0.000, 14:57:13.860
57, 14.94, 114.17, 0.00, 0.00, 0.000, 0.000, 0.000, 14:57:13.875
58, 13.51, 114.19, 0.00, 0.00, 0.000, 0.000, 0.000, 14:57:13.875
59, 12.56, 114.33, 0.00, 0.00, 0.000, 0.000, 0.000, 14:57:13.875
60, 15.14, 115.36, 0.00, 0.00, 0.000, 0.000, 0.000, 14:57:13.876
61, 13.55, 117.59, 0.00, 0.00, 0.000, 0.000, 0.000, 14:57:13.890
62, 11.66, 113.17, 0.00, 0.00, 0.000, 0.000, 0.000, 14:57:13.890
63, 14.23, 115.06, 0.00, 0.00, 0.000, 0.000, 0.000, 14:57:13.906
64, 16.16, 120.92, 0.00, 0.00, 0.000, 0.000, 0.000, 14:57:13.906
65, 13.62, 117.46, 0.00, 0.00, 0.000, 0.000, 0.000, 14:57:13.906
66, 11.10, 113.49, 0.00, 0.00, 0.000, 0.000, 0.000, 14:57:13.906
67, 11.44, 118.61, 0.00, 0.00, 0.000, 0.000, 0.000, 14:57:13.919
68, 12.52, 121.55, 0.00, 0.00, 0.000, 0.000, 0.000, 14:57:13.920
69, 15.74, 120.89, 0.00, 0.00, 0.000, 0.000, 0.000, 14:57:13.935
70, 8.97, 119.03, 0.00, 0.00, 0.000, 0.000, 0.000, 14:57:13.935
71, 9.49, 125.39, 0.00, 0.00, 0.000, 0.000, 0.000, 14:57:13.935
72, 14.65, 123.68, 0.00, 0.00, 0.000, 0.000, 0.000, 14:57:13.935
73, 10.29, 124.31, 0.00, 0.00, 0.000, 0.000, 0.000, 14:57:13.957
74, 8.25, 119.35, 0.00, 0.00, 0.000, 0.000, 0.000, 14:57:13.957
75, 14.60, 119.14, 0.00, 0.00, 0.000, 0.000, 0.000, 14:57:13.965
76, 15.05, 123.33, 0.00, 0.00, 0.000, 0.000, 0.000, 14:57:13.966
77, 15.09, 122.57, 0.00, 0.00, 0.000, 0.000, 0.000, 14:57:13.966
78, 15.82, 121.59, 0.00, 0.00, 0.000, 0.000, 0.000, 14:57:13.966
79, 15.20, 125.77, 0.00, 0.00, 0.000, 0.000, 0.000, 14:57:13.979
80, 16.90, 126.39, 0.00, 0.00, 0.000, 0.000, 0.000, 14:57:13.980
81, 13.64, 124.69, 0.00, 0.00, 0.000, 0.000, 0.000, 14:57:13.995
82, 13.91, 119.14, 0.00, 0.00, 0.000, 0.000, 0.000, 14:57:13.995
83, 10.25, 119.44, 0.00, 0.00, 0.000, 0.000, 0.000, 14:57:13.995
84, 11.03, 122.39, 0.00, 0.00, 0.000, 0.000, 0.000, 14:57:13.995
85, 15.72, 123.48, 0.00, 0.00, 0.000, 0.000, 0.000, 14:57:14.010
86, 8.74, 121.31, 0.00, 0.00, 0.000, 0.000, 0.000, 14:57:14.010
87, 7.21, 122.26, 0.00, 0.00, 0.000, 0.000, 0.000, 14:57:14.025
88, 12.17, 126.76, 0.00, 0.00, 0.000, 0.000, 0.000, 14:57:14.025
89, 11.60, 123.73, 0.00, 0.00, 0.000, 0.000, 0.000, 14:57:14.026
90, 8.63, 116.54, 0.00, 0.00, 0.000, 0.000, 0.000, 14:57:14.026
91, 11.30, 127.16, 0.00, 0.00, 0.000, 0.000, 0.000, 14:57:14.040
92, 13.13, 121.74, 0.00, 0.00, 0.000, 0.000, 0.000, 14:57:14.040
93, 13.74, 120.71, 0.00, 0.00, 0.000, 0.000, 0.000, 14:57:14.054
94, 12.87, 118.04, 0.00, 0.00, 0.000, 0.000, 0.000, 14:57:14.055
95, 9.84, 122.35, 0.00, 0.00, 0.000, 0.000, 0.000, 14:57:14.055
96, 11.72, 124.93, 0.00, 0.00, 0.000, 0.000, 0.000, 14:57:14.055
97, 7.72, 126.00, 0.00, 0.00, 0.000, 0.000, 0.000, 14:57:14.069
98, 9.98, 118.20, 0.00, 0.00, 0.000, 0.000, 0.000, 14:57:14.071
99, 10.32, 123.05, 0.00, 0.00, 0.000, 0.000, 0.000, 14:57:14.085
100, 15.08, 125.19, 0.00, 0.00, 0.000, 0.000, 0.000, 14:57:14.086
101, 15.79, 124.40, 0.00, 0.00, 0.000, 0.000, 0.000, 14:57:14.086
102, 15.24, 123.03, 0.00, 0.00, 0.000, 0.000, 0.000, 14:57:14.087
103, 15.30, 125.57, 0.00, 0.00, 0.000, 0.000, 0.000, 14:57:14.101
104, 15.05, 127.26, 0.00, 0.00, 0.000, 0.000, 0.000, 14:57:14.101
105, 14.57, 125.32, 0.00, 0.00, 0.000, 0.000, 0.000, 14:57:14.115
106, 15.30, 122.60, 0.00, 0.00, 0.000, 0.000, 0.000, 14:57:14.116
107, 12.32, 129.39, 0.00, 0.00, 0.000, 0.000, 0.000, 14:57:14.116
108, 15.74, 131.76, 0.00, 0.00, 0.000, 0.000, 0.000, 14:57:14.116
109, 17.87, 127.47, 0.00, 0.00, 0.000, 0.000, 0.000, 14:57:14.130
110, 12.29, 122.96, 0.00, 0.00, 0.000, 0.000, 0.000, 14:57:14.131
111, 11.31, 125.82, 0.00, 0.00, 0.000, 0.000, 0.000, 14:57:14.145
112, 11.46, 129.34, 0.00, 0.00, 0.000, 0.000, 0.000, 14:57:14.145
113, 9.15, 124.01, 0.00, 0.00, 0.000, 0.000, 0.000, 14:57:14.146
114, 9.22, 124.80, 0.00, 0.00, 0.000, 0.000, 0.000, 14:57:14.146
115, 11.78, 125.99, 0.00, 0.00, 0.000, 0.000, 0.000, 14:57:14.160
116, 9.05, 126.72, 0.00, 0.00, 0.000, 0.000, 0.000, 14:57:14.160
117, 12.59, 126.49, 0.00, 0.00, 0.000, 0.000, 0.000, 14:57:14.176
118, 12.19, 125.95, 0.00, 0.00, 0.000, 0.000, 0.000, 14:57:14.176
119, 8.88, 127.47, 0.00, 0.00, 0.000, 0.000, 0.000, 14:57:14.176
120, 9.45, 125.95, 0.00, 0.00, 0.000, 0.000, 0.000, 14:57:14.176
121, 6.43, 123.19, 0.00, 0.00, 0.000, 0.000, 0.000, 14:57:14.190
122, 7.60, 118.99, 0.00, 0.00, 0.000, 0.000, 0.000, 14:57:14.190
123, 5.36, 122.79, 0.00, 0.00, 0.000, 0.000, 0.000, 14:57:14.205
124, 12.20, 129.35, 0.00, 0.00, 0.000, 0.000, 0.000, 14:57:14.206
125, 7.04, 122.97, 0.00, 0.00, 0.000, 0.000, 0.000, 14:57:14.206
126, 6.61, 122.72, 0.00, 0.00, 0.000, 0.000, 0.000, 14:57:14.206
127, 8.98, 124.97, 0.00, 0.00, 0.000, 0.000, 0.000, 14:57:14.220
128, 10.15, 128.54, 0.00, 0.00, 0.000, 0.000, 0.000, 14:57:14.220
129, 7.20, 127.59, 0.00, 0.00, 0.000, 0.000, 0.000, 14:57:14.235
130, 3.45, 128.03, 0.00, 0.00, 0.000, 0.000, 0.000, 14:57:14.235
131, 4.30, 127.29, 0.00, 0.00, 0.000, 0.000, 0.000, 14:57:14.236
132, 7.87, 128.94, 0.00, 0.00, 0.000, 0.000, 0.000, 14:57:14.236
133, 7.81, 125.48, 0.00, 0.00, 0.000, 0.000, 0.000, 14:57:14.267
134, 7.23, 122.54, 0.00, 0.00, 0.000, 0.000, 0.000, 14:57:14.268
135, 6.08, 125.58, 0.00, 0.00, 0.000, 0.000, 0.000, 14:57:14.268
136, 6.23, 128.93, 0.00, 0.00, 0.000, 0.000, 0.000, 14:57:14.268
137, 7.76, 124.16, 0.00, 0.00, 0.000, 0.000, 0.000, 14:57:14.269
138, 10.21, 124.21, 0.00, 0.00, 0.000, 0.000, 0.000, 14:57:14.269
139, 6.79, 124.28, 0.00, 0.00, 0.000, 0.000, 0.000, 14:57:14.281
140, 9.11, 129.50, 0.00, 0.00, 0.000, 0.000, 0.000, 14:57:14.281
141, 4.06, 127.60, 0.00, 0.00, 0.000, 0.000, 0.000, 14:57:14.296
142, 7.19, 127.43, 0.00, 0.00, 0.000, 0.000, 0.000, 14:57:14.296
143, 4.05, 127.20, 0.00, 0.00, 0.000, 0.000, 0.000, 14:57:14.296
144, 6.97, 131.41, 0.00, 0.00, 0.000, 0.000, 0.000, 14:57:14.296
145, 7.61, 124.11, 0.00, 0.00, 0.000, 0.000, 0.000, 14:57:14.310
146, 3.58, 123.36, 0.00, 0.00, 0.000, 0.000, 0.000, 14:57:14.310
147, 5.15, 129.26, 0.00, 0.00, 0.000, 0.000, 0.000, 14:57:14.325
148, 6.57, 130.93, 0.00, 0.00, 0.000, 0.000, 0.000, 14:57:14.326
149, 2.78, 127.61, 0.00, 0.00, 0.000, 0.000, 0.000, 14:57:14.326
150, 3.84, 125.06, 0.00, 0.00, 0.000, 0.000, 0.000, 14:57:14.326
151, 4.20, 124.49, 0.00, 0.00, 0.000, 0.000, 0.000, 14:57:14.342
152, 6.49, 125.63, 0.00, 0.00, 0.000, 0.000, 0.000, 14:57:14.343
153, 7.24, 121.43, 0.00, 0.00, 0.000, 0.000, 0.000, 14:57:14.355
154, 5.40, 121.25, 0.00, 0.00, 0.000, 0.000, 0.000, 14:57:14.355
155, 4.57, 123.38, 0.00, 0.00, 0.000, 0.000, 0.000, 14:57:14.356
156, 5.57, 126.70, 0.00, 0.00, 0.000, 0.000, 0.000, 14:57:14.356
157, 6.51, 124.71, 0.00, 0.00, 0.000, 0.000, 0.000, 14:57:14.371
158, 5.40, 123.91, 0.00, 0.00, 0.000, 0.000, 0.000, 14:57:14.371
159, 7.06, 123.15, 0.00, 0.00, 0.000, 0.000, 0.000, 14:57:14.385
160, 6.42, 125.04, 0.00, 0.00, 0.000, 0.000, 0.000, 14:57:14.385
161, 5.85, 122.94, 0.00, 0.00, 0.000, 0.000, 0.000, 14:57:14.385
162, 2.62, 118.35, 0.00, 0.00, 0.000, 0.000, 0.000, 14:57:14.385
163, 3.54, 123.03, 0.00, 0.00, 0.000, 0.000, 0.000, 14:57:14.400
164, 5.54, 122.90, 0.00, 0.00, 0.000, 0.000, 0.000, 14:57:14.400
165, 3.80, 124.21, 0.00, 0.00, 0.000, 0.000, 0.000, 14:57:14.416
166, 4.88, 121.99, 0.00, 0.00, 0.000, 0.000, 0.000, 14:57:14.416
167, 1.97, 118.81, 0.00, 0.00, 0.000, 0.000, 0.000, 14:57:14.416
168, 4.86, 128.16, 0.00, 0.00, 0.000, 0.000, 0.000, 14:57:14.416
169, 3.75, 125.17, 0.00, 0.00, 0.000, 0.000, 0.000, 14:57:14.481
170, 4.42, 120.96, 0.00, 0.00, 0.000, 0.000, 0.000, 14:57:14.482
171, 2.78, 124.36, 0.00, 0.00, 0.000, 0.000, 0.000, 14:57:14.482
172, 5.17, 125.08, 0.00, 0.00, 0.000, 0.000, 0.000, 14:57:14.482
173, 1.25, 124.23, 0.00, 0.00, 0.000, 0.000, 0.000, 14:57:14.483
174, 3.67, 124.36, 0.00, 0.00, 0.000, 0.000, 0.000, 14:57:14.483
175, 0.53, 126.09, 0.00, 0.00, 0.000, 0.000, 0.000, 14:57:14.483
176, 4.03, 127.86, 0.00, 0.00, 0.000, 0.000, 0.000, 14:57:14.484
177, 4.25, 124.07, 0.00, 0.00, 0.000, 0.000, 0.000, 14:57:14.490
178, 0.81, 118.81, 0.00, 0.00, 0.000, 0.000, 0.000, 14:57:14.491
179, 1.81, 117.85, 0.00, 0.00, 0.000, 0.000, 0.000, 14:57:14.491
180, 3.08, 121.74, 0.00, 0.00, 0.000, 0.000, 0.000, 14:57:14.491
181, 0.65, 124.34, 0.00, 0.00, 0.000, 0.000, 0.000, 14:57:14.491
182, -2.81, 118.39, 0.00, 0.00, 0.000, 0.000, 0.000, 14:57:14.492
183, -0.55, 118.49, 0.00, 0.00, 0.000, 0.000, 0.000, 14:57:14.492
184, -0.28, 121.00, 0.00, 0.00, 0.000, 0.000, 0.000, 14:57:14.492
185, 0.22, 121.20, 0.00, 0.00, 0.000, 0.000, 0.000, 14:57:14.505
186, -3.69, 115.94, 0.00, 0.00, 0.000, 0.000, 0.000, 14:57:14.505
187, -0.42, 119.18, 0.00, 0.00, 0.000, 0.000, 0.000, 14:57:14.519
188, 3.47, 122.97, 0.00, 0.00, 0.000, 0.000, 0.000, 14:57:14.519
189, 1.74, 118.88, 0.00, 0.00, 0.000, 0.000, 0.000, 14:57:14.534
190, -1.40, 111.97, 0.00, 0.00, 0.000, 0.000, 0.000, 14:57:14.534
191, -2.41, 114.11, 0.00, 0.00, 0.000, 0.000, 0.000, 14:57:14.535
192, 0.36, 119.59, 0.00, 0.00, 0.000, 0.000, 0.000, 14:57:14.535
193, 2.71, 123.41, 0.00, 0.00, 0.000, 0.000, 0.000, 14:57:14.549
194, 1.83, 114.37, 0.00, 0.00, 0.000, 0.000, 0.000, 14:57:14.549
195, 3.99, 120.80, 0.00, 0.00, 0.000, 0.000, 0.000, 14:57:14.569
196, 8.96, 125.25, 0.00, 0.00, 0.000, 0.000, 0.000, 14:57:14.569
197, 5.23, 119.50, 0.00, 0.00, 0.000, 0.000, 0.000, 14:57:14.571
198, 3.94, 119.50, 0.00, 0.00, 0.000, 0.000, 0.000, 14:57:14.572
199, 3.54, 122.55, 0.00, 0.00, 0.000, 0.000, 0.000, 14:57:14.579
200, 7.05, 124.17, 0.00, 0.00, 0.000, 0.000, 0.000, 14:57:14.579
0, 4.24, 119.77, 0.00, 0.00, 0.000, 0.000, 0.000, 14:57:14.580
1, 2.58, 117.45, 0.00, 0.00, 0.000, 0.000, 0.000, 14:57:14.595
2, 0.39, 117.58, 0.00, 0.00, 0.000, 0.000, 0.000, 14:57:14.595
3, 1.05, 121.87, 0.00, 0.00, 0.000, 0.000, 0.000, 14:57:14.611
4, -0.37, 118.80, 0.00, 0.00, 0.000, 0.000, 0.000, 14:57:14.611
5, 1.77, 117.72, 0.00, 0.00, 0.000, 0.000, 0.000, 14:57:14.611
6, 1.05, 120.44, 0.00, 0.00, 0.000, 0.000, 0.000, 14:57:14.612
7, -1.59, 116.98, 0.00, 0.00, 0.000, 0.000, 0.000, 14:57:14.640
8, -4.11, 118.68, 0.00, 0.00, 0.000, 0.000, 0.000, 14:57:14.641
9, -7.19, 111.68, 0.00, 0.00, 0.000, 0.000, 0.000, 14:57:14.641
10, -6.62, 116.95, 0.00, 0.00, 0.000, 0.000, 0.000, 14:57:14.641
11, -1.42, 119.51, 0.00, 0.00, 0.000, 0.000, 0.000, 14:57:14.641
12, 2.53, 121.28, 0.00, 0.00, 0.000, 0.000, 0.000, 14:57:14.641
13, -1.01, 119.07, 0.00, 0.00, 0.000, 0.000, 0.000, 14:57:14.655
14, -4.10, 117.82, 0.00, 0.00, 0.000, 0.000, 0.000, 14:57:14.655
15, 4.46, 120.84, 0.00, 0.00, 0.000, 0.000, 0.000, 14:57:14.670
16, -0.09, 120.77, 0.00, 0.00, 0.000, 0.000, 0.000, 14:57:14.670
17, -0.48, 118.25, 0.00, 0.00, 0.000, 0.000, 0.000, 14:57:14.671
18, -2.69, 117.86, 0.00, 0.00, 0.000, 0.000, 0.000, 14:57:14.671
19, -2.36, 118.33, 0.00, 0.00, 0.000, 0.000, 0.000, 14:57:14.684
20, -2.34, 120.72, 0.00, 0.00, 0.000, 0.000, 0.000, 14:57:14.685
21, -3.04, 116.22, 0.00, 0.00, 0.000, 0.000, 0.000, 14:57:14.700
22, -2.55, 115.74, 0.00, 0.00, 0.000, 0.000, 0.000, 14:57:14.700
23, 1.38, 119.95, 0.00, 0.00, 0.000, 0.000, 0.000, 14:57:14.700
24, -0.83, 121.40, 0.00, 0.00, 0.000, 0.000, 0.000, 14:57:14.700
25, -2.34, 116.45, 0.00, 0.00, 0.000, 0.000, 0.000, 14:57:14.715
26, -1.48, 117.59, 0.00, 0.00, 0.000, 0.000, 0.000, 14:57:14.715
27, 0.72, 118.62, 0.00, 0.00, 0.000, 0.000, 0.000, 14:57:14.730
28, -0.15, 119.45, 0.00, 0.00, 0.000, 0.000, 0.000, 14:57:14.730
29, -2.53, 117.71, 0.00, 0.00, 0.000, 0.000, 0.000, 14:57:14.730
30, -2.72, 121.31, 0.00, 0.00, 0.000, 0.000, 0.000, 14:57:14.731
31, 2.58, 123.65, 0.00, 0.00, 0.000, 0.000, 0.000, 14:57:14.745
32, 0.96, 122.30, 0.00, 0.00, 0.000, 0.000, 0.000, 14:57:14.745
33, -0.34, 117.55, 0.00, 0.00, 0.000, 0.000, 0.000, 14:57:14.760
34, -0.00, 120.25, 0.00, 0.00, 0.000, 0.000, 0.000, 14:57:14.760
35, 3.42, 125.59, 0.00, 0.00, 0.000, 0.000, 0.000, 14:57:14.761
36, 0.72, 122.43, 0.00, 0.00, 0.000, 0.000, 0.000, 14:57:14.761
37, -6.26, 118.19, 0.00, 0.00, 0.000, 0.000, 0.000, 14:57:14.775
38, -2.58, 124.78, 0.00, 0.00, 0.000, 0.000, 0.000, 14:57:14.775
39, -2.24, 125.08, 0.00, 0.00, 0.000, 0.000, 0.000, 14:57:14.790
40, -4.23, 121.80, 0.00, 0.00, 0.000, 0.000, 0.000, 14:57:14.790
41, -3.52, 120.53, 0.00, 0.00, 0.000, 0.000, 0.000, 14:57:14.790
42, -5.92, 118.78, 0.00, 0.00, 0.000, 0.000, 0.000, 14:57:14.790
43, -3.17, 125.50, 0.00, 0.00, 0.000, 0.000, 0.000, 14:57:14.805
44, -2.91, 124.24, 0.00, 0.00, 0.000, 0.000, 0.000, 14:57:14.805
45, -4.79, 122.08, 0.00, 0.00, 0.000, 0.000, 0.000, 14:57:14.819
46, -7.26, 124.33, 0.00, 0.00, 0.000, 0.000, 0.000, 14:57:14.819
47, -2.31, 128.38, 0.00, 0.00, 0.000, 0.000, 0.000, 14:57:14.819
48, -2.14, 125.57, 0.00, 0.00, 0.000, 0.000, 0.000, 14:57:14.820
49, -4.66, 121.54, 0.00, 0.00, 0.000, 0.000, 0.000, 14:57:14.835
50, -2.39, 125.32, 0.00, 0.00, 0.000, 0.000, 0.000, 14:57:14.835
51, -0.70, 128.87, 0.00, 0.00, 0.000, 0.000, 0.000, 14:57:14.850
52, -3.14, 128.71, 0.00, 0.00, 0.000, 0.000, 0.000, 14:57:14.850
53, -1.52, 122.26, 0.00, 0.00, 0.000, 0.000, 0.000, 14:57:14.851
54, -3.26, 121.29, 0.00, 0.00, 0.000, 0.000, 0.000, 14:57:14.851
55, -1.59, 125.34, 0.00, 0.00, 0.000, 0.000, 0.000, 14:57:14.867
56, -2.85, 125.22, 0.00, 0.00, 0.000, 0.000, 0.000, 14:57:14.867
57, -2.18, 118.88, 0.00, 0.00, 0.000, 0.000, 0.000, 14:57:14.880
58, -3.72, 123.19, 0.00, 0.00, 0.000, 0.000, 0.000, 14:57:14.880
59, -0.84, 124.25, 0.00, 0.00, 0.000, 0.000, 0.000, 14:57:14.880
60, -5.93, 121.53, 0.00, 0.00, 0.000, 0.000, 0.000, 14:57:14.880
61, -4.41, 122.84, 0.00, 0.00, 0.000, 0.000, 0.000, 14:57:14.902
62, 0.82, 126.80, 0.00, 0.00, 0.000, 0.000, 0.000, 14:57:14.902
63, -2.64, 129.88, 0.00, 0.00, 0.000, 0.000, 0.000, 14:57:14.911
64, 3.45, 124.68, 0.00, 0.00, 0.000, 0.000, 0.000, 14:57:14.911
65, -0.83, 122.06, 0.00, 0.00, 0.000, 0.000, 0.000, 14:57:14.911
66, 5.12, 125.81, 0.00, 0.00, 0.000, 0.000, 0.000, 14:57:14.911
67, 1.00, 128.64, 0.00, 0.00, 0.000, 0.000, 0.000, 14:57:14.925
68, -0.07, 127.75, 0.00, 0.00, 0.000, 0.000, 0.000, 14:57:14.925
69, 2.93, 125.48, 0.00, 0.00, 0.000, 0.000, 0.000, 14:57:14.940
70, 3.67, 127.93, 0.00, 0.00, 0.000, 0.000, 0.000, 14:57:14.940
71, 0.77, 131.23, 0.00, 0.00, 0.000, 0.000, 0.000, 14:57:14.940
72, 1.50, 126.06, 0.00, 0.00, 0.000, 0.000, 0.000, 14:57:14.940
73, -2.04, 127.12, 0.00, 0.00, 0.000, 0.000, 0.000, 14:57:14.954
74, 1.90, 129.45, 0.00, 0.00, 0.000, 0.000, 0.000, 14:57:14.955
75, 3.77, 131.46, 0.00, 0.00, 0.000, 0.000, 0.000, 14:57:14.970
76, 6.09, 129.80, 0.00, 0.00, 0.000, 0.000, 0.000, 14:57:14.970
77, -0.11, 125.47, 0.00, 0.00, 0.000, 0.000, 0.000, 14:57:14.970
78, -3.67, 127.93, 0.00, 0.00, 0.000, 0.000, 0.000, 14:57:14.970
79, -0.32, 130.66, 0.00, 0.00, 0.000, 0.000, 0.000, 14:57:14.985
80, -1.91, 125.67, 0.00, 0.00, 0.000, 0.000, 0.000, 14:57:14.985
81, 0.21, 122.92, 0.00, 0.00, 0.000, 0.000, 0.000, 14:57:14.999
82, 2.20, 128.14, 0.00, 0.00, 0.000, 0.000, 0.000, 14:57:14.999
83, 2.05, 133.71, 0.00, 0.00, 0.000, 0.000, 0.000, 14:57:14.999
84, 6.05, 130.36, 0.00, 0.00, 0.000, 0.000, 0.000, 14:57:15.000
85, 0.01, 129.51, 0.00, 0.00, 0.000, 0.000, 0.000, 14:57:15.014
86, 1.66, 129.68, 0.00, 0.00, 0.000, 0.000, 0.000, 14:57:15.015
87, 7.53, 129.27, 0.00, 0.00, 0.000, 0.000, 0.000, 14:57:15.030
88, 4.19, 129.54, 0.00, 0.00, 0.000, 0.000, 0.000, 14:57:15.032
89, 2.19, 124.61, 0.00, 0.00, 0.000, 0.000, 0.000, 14:57:15.045
90, 1.31, 130.79, 0.00, 0.00, 0.000, 0.000, 0.000, 14:57:15.045
91, 4.47, 132.77, 0.00, 0.00, 0.000, 0.000, 0.000, 14:57:15.045
92, -0.55, 128.42, 0.00, 0.00, 0.000, 0.000, 0.000, 14:57:15.045
93, -2.30, 127.75, 0.00, 0.00, 0.000, 0.000, 0.000, 14:57:15.070
94, 3.01, 126.20, 0.00, 0.00, 0.000, 0.000, 0.000, 14:57:15.070
95, 2.71, 130.10, 0.00, 0.00, 0.000, 0.000, 0.000, 14:57:15.070
96, 1.28, 128.17, 0.00, 0.00, 0.000, 0.000, 0.000, 14:57:15.070
97, -1.58, 127.05, 0.00, 0.00, 0.000, 0.000, 0.000, 14:57:15.074
98, -0.27, 128.18, 0.00, 0.00, 0.000, 0.000, 0.000, 14:57:15.075
99, 2.79, 133.15, 0.00, 0.00, 0.000, 0.000, 0.000, 14:57:15.090
100, 2.26, 132.49, 0.00, 0.00, 0.000, 0.000, 0.000, 14:57:15.091
101, -1.09, 129.96, 0.00, 0.00, 0.000, 0.000, 0.000, 14:57:15.091
102, 2.05, 126.97, 0.00, 0.00, 0.000, 0.000, 0.000, 14:57:15.091
103, 2.88, 129.77, 0.00, 0.00, 0.000, 0.000, 0.000, 14:57:15.106
104, 3.11, 129.04, 0.00, 0.00, 0.000, 0.000, 0.000, 14:57:15.106
105, 1.74, 128.54, 0.00, 0.00, 0.000, 0.000, 0.000, 14:57:15.120
106, 3.98, 131.63, 0.00, 0.00, 0.000, 0.000, 0.000, 14:57:15.120
107, 2.30, 131.71, 0.00, 0.00, 0.000, 0.000, 0.000, 14:57:15.120
108, 2.71, 131.10, 0.00, 0.00, 0.000, 0.000, 0.000, 14:57:15.120
109, 0.54, 125.14, 0.00, 0.00, 0.000, 0.000, 0.000, 14:57:15.135
110, -0.01, 131.71, 0.00, 0.00, 0.000, 0.000, 0.000, 14:57:15.135
111, 2.92, 135.55, 0.00, 0.00, 0.000, 0.000, 0.000, 14:57:15.150
112, 3.51, 132.89, 0.00, 0.00, 0.000, 0.000, 0.000, 14:57:15.150
113, 1.94, 127.47, 0.00, 0.00, 0.000, 0.000, 0.000, 14:57:15.150
114, 0.29, 127.08, 0.00, 0.00, 0.000, 0.000, 0.000, 14:57:15.152
115, 6.59, 129.95, 0.00, 0.00, 0.000, 0.000, 0.000, 14:57:15.164
116, 6.93, 132.62, 0.00, 0.00, 0.000, 0.000, 0.000, 14:57:15.165
117, 4.90, 129.55, 0.00, 0.00, 0.000, 0.000, 0.000, 14:57:15.180
118, 2.50, 131.71, 0.00, 0.00, 0.000, 0.000, 0.000, 14:57:15.180
119, 2.27, 132.78, 0.00, 0.00, 0.000, 0.000, 0.000, 14:57:15.195
120, 6.29, 130.90, 0.00, 0.00, 0.000, 0.000, 0.000, 14:57:15.195
121, 3.01, 130.33, 0.00, 0.00, 0.000, 0.000, 0.000, 14:57:15.196
122, 1.66, 132.29, 0.00, 0.00, 0.000, 0.000, 0.000, 14:57:15.196
123, 2.59, 134.60, 0.00, 0.00, 0.000, 0.000, 0.000, 14:57:15.210
124, 1.52, 131.06, 0.00, 0.00, 0.000, 0.000, 0.000, 14:57:15.210
125, 2.02, 127.88, 0.00, 0.00, 0.000, 0.000, 0.000, 14:57:15.217
126, 5.70, 130.70, 0.00, 0.00, 0.000, 0.000, 0.000, 14:57:15.217
127, 5.45, 132.88, 0.00, 0.00, 0.000, 0.000, 0.000, 14:57:15.225
128, 5.48, 131.93, 0.00, 0.00, 0.000, 0.000, 0.000, 14:57:15.225
129, 1.99, 126.49, 0.00, 0.00, 0.000, 0.000, 0.000, 14:57:15.240
130, 3.47, 130.96, 0.00, 0.00, 0.000, 0.000, 0.000, 14:57:15.240
131, 3.49, 132.93, 0.00, 0.00, 0.000, 0.000, 0.000, 14:57:15.240
132, 1.87, 128.45, 0.00, 0.00, 0.000, 0.000, 0.000, 14:57:15.241
133, -0.06, 126.03, 0.00, 0.00, 0.000, 0.000, 0.000, 14:57:15.255
134, 4.52, 127.82, 0.00, 0.00, 0.000, 0.000, 0.000, 14:57:15.255
135, 2.42, 133.61, 0.00, 0.00, 0.000, 0.000, 0.000, 14:57:15.270
136, 0.01, 130.78, 0.00, 0.00, 0.000, 0.000, 0.000, 14:57:15.270
137, -0.56, 122.15, 0.00, 0.00, 0.000, 0.000, 0.000, 14:57:15.271
138, 1.25, 126.27, 0.00, 0.00, 0.000, 0.000, 0.000, 14:57:15.271
139, 1.80, 133.22, 0.00, 0.00, 0.000, 0.000, 0.000, 14:57:15.285
140, 3.93, 132.14, 0.00, 0.00, 0.000, 0.000, 0.000, 14:57:15.285
141, 4.92, 132.51, 0.00, 0.00, 0.000, 0.000, 0.000, 14:57:15.300
142, 6.20, 134.90, 0.00, 0.00, 0.000, 0.000, 0.000, 14:57:15.300
143, 7.98, 137.84, 0.00, 0.00, 0.000, 0.000, 0.000, 14:57:15.300
144, 7.47, 137.02, 0.00, 0.00, 0.000, 0.000, 0.000, 14:57:15.301
145, 7.33, 134.36, 0.00, 0.00, 0.000, 0.000, 0.000, 14:57:15.315
146, 5.53, 134.82, 0.00, 0.00, 0.000, 0.000, 0.000, 14:57:15.315
147, 7.14, 139.00, 0.00, 0.00, 0.000, 0.000, 0.000, 14:57:15.332
148, 6.44, 131.66, 0.00, 0.00, 0.000, 0.000, 0.000, 14:57:15.333
149, 7.63, 130.24, 0.00, 0.00, 0.000, 0.000, 0.000, 14:57:15.333
150, 5.36, 133.01, 0.00, 0.00, 0.000, 0.000, 0.000, 14:57:15.333
151, 7.79, 135.19, 0.00, 0.00, 0.000, 0.000, 0.000, 14:57:15.345
152, 7.74, 131.82, 0.00, 0.00, 0.000, 0.000, 0.000, 14:57:15.345
153, 6.55, 131.93, 0.00, 0.00, 0.000, 0.000, 0.000, 14:57:15.359
154, 6.86, 133.12, 0.00, 0.00, 0.000, 0.000, 0.000, 14:57:15.360
155, 7.17, 134.11, 0.00, 0.00, 0.000, 0.000, 0.000, 14:57:15.375
156, 7.89, 132.65, 0.00, 0.00, 0.000, 0.000, 0.000, 14:57:15.375
157, 6.75, 130.91, 0.00, 0.00, 0.000, 0.000, 0.000, 14:57:15.375
158, 6.68, 132.68, 0.00, 0.00, 0.000, 0.000, 0.000, 14:57:15.375
159, 5.84, 134.36, 0.00, 0.00, 0.000, 0.000, 0.000, 14:57:15.389
160, 4.92, 128.14, 0.00, 0.00, 0.000, 0.000, 0.000, 14:57:15.390
161, 2.60, 129.11, 0.00, 0.00, 0.000, 0.000, 0.000, 14:57:15.390
162, 6.21, 131.21, 0.00, 0.00, 0.000, 0.000, 0.000, 14:57:15.390
163, 12.00, 131.48, 0.00, 0.00, 0.000, 0.000, 0.000, 14:57:15.405
164, 10.01, 131.61, 0.00, 0.00, 0.000, 0.000, 0.000, 14:57:15.405
165, 6.12, 131.93, 0.00, 0.00, 0.000, 0.000, 0.000, 14:57:15.420
166, 6.73, 134.41, 0.00, 0.00, 0.000, 0.000, 0.000, 14:57:15.420
167, 10.41, 135.29, 0.00, 0.00, 0.000, 0.000, 0.000, 14:57:15.420
168, 8.72, 131.33, 0.00, 0.00, 0.000, 0.000, 0.000, 14:57:15.421
169, 11.96, 129.93, 0.00, 0.00, 0.000, 0.000, 0.000, 14:57:15.436
170, 8.45, 131.97, 0.00, 0.00, 0.000, 0.000, 0.000, 14:57:15.436
171, 9.17, 133.94, 0.00, 0.00, 0.000, 0.000, 0.000, 14:57:15.450
172, 10.31, 128.96, 0.00, 0.00, 0.000, 0.000, 0.000, 14:57:15.450
173, 6.39, 132.01, 0.00, 0.00, 0.000, 0.000, 0.000, 14:57:15.450
174, 6.12, 130.71, 0.00, 0.00, 0.000, 0.000, 0.000, 14:57:15.450
175, 8.14, 133.80, 0.00, 0.00, 0.000, 0.000, 0.000, 14:57:15.465
176, 10.97, 132.26, 0.00, 0.00, 0.000, 0.000, 0.000, 14:57:15.465
177, 8.54, 128.96, 0.00, 0.00, 0.000, 0.000, 0.000, 14:57:15.480
178, 7.24, 130.42, 0.00, 0.00, 0.000, 0.000, 0.000, 14:57:15.480
179, 10.94, 134.37, 0.00, 0.00, 0.000, 0.000, 0.000, 14:57:15.480
180, 11.36, 132.49, 0.00, 0.00, 0.000, 0.000, 0.000, 14:57:15.480
181, 8.99, 125.28, 0.00, 0.00, 0.000, 0.000, 0.000, 14:57:15.495
182, 8.46, 128.39, 0.00, 0.00, 0.000, 0.000, 0.000, 14:57:15.495
183, 12.22, 129.15, 0.00, 0.00, 0.000, 0.000, 0.000, 14:57:15.510
184, 12.43, 127.84, 0.00, 0.00, 0.000, 0.000, 0.000, 14:57:15.510
185, 0.58, 123.84, 0.00, 0.00, 0.000, 0.000, 0.000, 14:57:15.510
186, 3.00, 127.79, 0.00, 0.00, 0.000, 0.000, 0.000, 14:57:15.511
187, 11.59, 129.97, 0.00, 0.00, 0.000, 0.000, 0.000, 14:57:15.525
188, 8.41, 126.30, 0.00, 0.00, 0.000, 0.000, 0.000, 14:57:15.526
189, 4.94, 124.59, 0.00, 0.00, 0.000, 0.000, 0.000, 14:57:15.541
190, 6.65, 124.92, 0.00, 0.00, 0.000, 0.000, 0.000, 14:57:15.542
191, 6.24, 127.98, 0.00, 0.00, 0.000, 0.000, 0.000, 14:57:15.542
192, 6.92, 126.89, 0.00, 0.00, 0.000, 0.000, 0.000, 14:57:15.542
193, 2.33, 126.00, 0.00, 0.00, 0.000, 0.000, 0.000, 14:57:15.554
194, 6.78, 124.97, 0.00, 0.00, 0.000, 0.000, 0.000, 14:57:15.555
195, 8.08, 128.11, 0.00, 0.00, 0.000, 0.000, 0.000, 14:57:15.569
196, 4.83, 126.72, 0.00, 0.00, 0.000, 0.000, 0.000, 14:57:15.570
197, 2.42, 123.60, 0.00, 0.00, 0.000, 0.000, 0.000, 14:57:15.570
198, 2.84, 127.18, 0.00, 0.00, 0.000, 0.000, 0.000, 14:57:15.570
199, 5.54, 126.49, 0.00, 0.00, 0.000, 0.000, 0.000, 14:57:15.584
200, 4.42, 127.27, 0.00, 0.00, 0.000, 0.000, 0.000, 14:57:15.584
0, 2.55, 122.55, 0.00, 0.00, 0.000, 0.000, 0.000, 14:57:15.584
1, 5.94, 126.31, 0.00, 0.00, 0.000, 0.000, 0.000, 14:57:15.600
2, 8.52, 127.10, 0.00, 0.00, 0.000, 0.000, 0.000, 14:57:15.600
3, 8.14, 123.87, 0.00, 0.00, 0.000, 0.000, 0.000, 14:57:15.614
4, 7.95, 120.65, 0.00, 0.00, 0.000, 0.000, 0.000, 14:57:15.614
5, 6.87, 123.22, 0.00, 0.00, 0.000, 0.000, 0.000, 14:57:15.614
6, 9.74, 128.42, 0.00, 0.00, 0.000, 0.000, 0.000, 14:57:15.616
7, 7.42, 125.14, 0.00, 0.00, 0.000, 0.000, 0.000, 14:57:15.630
8, 4.96, 121.85, 0.00, 0.00, 0.000, 0.000, 0.000, 14:57:15.630
9, 6.78, 124.93, 0.00, 0.00, 0.000, 0.000, 0.000, 14:57:15.645
10, 5.61, 126.14, 0.00, 0.00, 0.000, 0.000, 0.000, 14:57:15.646
11, 6.48, 125.79, 0.00, 0.00, 0.000, 0.000, 0.000, 14:57:15.646
12, 3.99, 123.79, 0.00, 0.00, 0.000, 0.000, 0.000, 14:57:15.646
13, 3.76, 126.47, 0.00, 0.00, 0.000, 0.000, 0.000, 14:57:15.674
14, 8.79, 125.45, 0.00, 0.00, 0.000, 0.000, 0.000, 14:57:15.675
15, 6.56, 124.41, 0.00, 0.00, 0.000, 0.000, 0.000, 14:57:15.675
16, 3.06, 119.68, 0.00, 0.00, 0.000, 0.000, 0.000, 14:57:15.675
17, 1.24, 123.36, 0.00, 0.00, 0.000, 0.000, 0.000, 14:57:15.676
18, 3.29, 131.15, 0.00, 0.00, 0.000, 0.000, 0.000, 14:57:15.676
19, 5.75, 124.82, 0.00, 0.00, 0.000, 0.000, 0.000, 14:57:15.697
20, 4.49, 121.59, 0.00, 0.00, 0.000, 0.000, 0.000, 14:57:15.699
21, 5.95, 125.82, 0.00, 0.00, 0.000, 0.000, 0.000, 14:57:15.705
22, 4.14, 130.97, 0.00, 0.00, 0.000, 0.000, 0.000, 14:57:15.705
23, 6.82, 125.50, 0.00, 0.00, 0.000, 0.000, 0.000, 14:57:15.705
24, 7.02, 123.42, 0.00, 0.00, 0.000, 0.000, 0.000, 14:57:15.705
25, 3.65, 126.24, 0.00, 0.00, 0.000, 0.000, 0.000, 14:57:15.720
26, 8.65, 125.63, 0.00, 0.00, 0.000, 0.000, 0.000, 14:57:15.720
27, 8.65, 125.79, 0.00, 0.00, 0.000, 0.000, 0.000, 14:57:15.750
28, 8.16, 121.17, 0.00, 0.00, 0.000, 0.000, 0.000, 14:57:15.750
29, 7.55, 125.51, 0.00, 0.00, 0.000, 0.000, 0.000, 14:57:15.750
30, 6.35, 129.38, 0.00, 0.00, 0.000, 0.000, 0.000, 14:57:15.750
31, 3.76, 126.34, 0.00, 0.00, 0.000, 0.000, 0.000, 14:57:15.751
32, 4.95, 123.41, 0.00, 0.00, 0.000, 0.000, 0.000, 14:57:15.751
33, 1.73, 127.55, 0.00, 0.00, 0.000, 0.000, 0.000, 14:57:15.752
34, 5.59, 128.46, 0.00, 0.00, 0.000, 0.000, 0.000, 14:57:15.752
35, 8.27, 120.76, 0.00, 0.00, 0.000, 0.000, 0.000, 14:57:15.765
36, 3.00, 116.22, 0.00, 0.00, 0.000, 0.000, 0.000, 14:57:15.765
37, -0.39, 123.30, 0.00, 0.00, 0.000, 0.000, 0.000, 14:57:15.780
38, 9.93, 125.73, 0.00, 0.00, 0.000, 0.000, 0.000, 14:57:15.780
39, 8.44, 125.22, 0.00, 0.00, 0.000, 0.000, 0.000, 14:57:15.795
40, 6.48, 122.63, 0.00, 0.00, 0.000, 0.000, 0.000, 14:57:15.796
41, 4.50, 122.14, 0.00, 0.00, 0.000, 0.000, 0.000, 14:57:15.796
42, 10.22, 125.75, 0.00, 0.00, 0.000, 0.000, 0.000, 14:57:15.796
43, 10.39, 123.97, 0.00, 0.00, 0.000, 0.000, 0.000, 14:57:15.811
44, 10.16, 122.41, 0.00, 0.00, 0.000, 0.000, 0.000, 14:57:15.811
45, 9.51, 127.03, 0.00, 0.00, 0.000, 0.000, 0.000, 14:57:15.825
46, 8.42, 133.37, 0.00, 0.00, 0.000, 0.000, 0.000, 14:57:15.826
47, 6.81, 129.30, 0.00, 0.00, 0.000, 0.000, 0.000, 14:57:15.826
48, 5.89, 128.23, 0.00, 0.00, 0.000, 0.000, 0.000, 14:57:15.826
49, 5.37, 126.32, 0.00, 0.00, 0.000, 0.000, 0.000, 14:57:15.839
50, 11.15, 127.26, 0.00, 0.00, 0.000, 0.000, 0.000, 14:57:15.840
51, 10.04, 126.60, 0.00, 0.00, 0.000, 0.000, 0.000, 14:57:15.855
52, 9.86, 121.59, 0.00, 0.00, 0.000, 0.000, 0.000, 14:57:15.855
53, 9.48, 125.19, 0.00, 0.00, 0.000, 0.000, 0.000, 14:57:15.856
54, 11.34, 126.51, 0.00, 0.00, 0.000, 0.000, 0.000, 14:57:15.856
55, 11.52, 126.00, 0.00, 0.00, 0.000, 0.000, 0.000, 14:57:15.870
56, 5.59, 124.93, 0.00, 0.00, 0.000, 0.000, 0.000, 14:57:15.870
57, 4.41, 126.65, 0.00, 0.00, 0.000, 0.000, 0.000, 14:57:15.885
58, 6.69, 130.74, 0.00, 0.00, 0.000, 0.000, 0.000, 14:57:15.885
59, 8.52, 123.41, 0.00, 0.00, 0.000, 0.000, 0.000, 14:57:15.885
60, 5.94, 125.66, 0.00, 0.00, 0.000, 0.000, 0.000, 14:57:15.886
61, 4.95, 131.58, 0.00, 0.00, 0.000, 0.000, 0.000, 14:57:15.904
62, 9.82, 130.64, 0.00, 0.00, 0.000, 0.000, 0.000, 14:57:15.904
63, 12.50, 129.25, 0.00, 0.00, 0.000, 0.000, 0.000, 14:57:15.914
64, 10.40, 126.92, 0.00, 0.00, 0.000, 0.000, 0.000, 14:57:15.914
65, 11.04, 126.26, 0.00, 0.00, 0.000, 0.000, 0.000, 14:57:15.915
66, 13.90, 129.92, 0.00, 0.00, 0.000, 0.000, 0.000, 14:57:15.915
67, 14.06, 126.12, 0.00, 0.00, 0.000, 0.000, 0.000, 14:57:15.930
68, 10.68, 122.76, 0.00, 0.00, 0.000, 0.000, 0.000, 14:57:15.930
69, 9.47, 127.66, 0.00, 0.00, 0.000, 0.000, 0.000, 14:57:15.945
70, 9.58, 129.83, 0.00, 0.00, 0.000, 0.000, 0.000, 14:57:15.945
71, 10.61, 126.02, 0.00, 0.00, 0.000, 0.000, 0.000, 14:57:15.945
72, 6.98, 122.95, 0.00, 0.00, 0.000, 0.000, 0.000, 14:57:15.945
73, 10.35, 124.11, 0.00, 0.00, 0.000, 0.000, 0.000, 14:57:15.959
74, 9.56, 124.88, 0.00, 0.00, 0.000, 0.000, 0.000, 14:57:15.960
75, 9.82, 124.30, 0.00, 0.00, 0.000, 0.000, 0.000, 14:57:15.975
76, 7.34, 123.73, 0.00, 0.00, 0.000, 0.000, 0.000, 14:57:15.975
77, 6.57, 126.40, 0.00, 0.00, 0.000, 0.000, 0.000, 14:57:15.982
78, 9.01, 128.11, 0.00, 0.00, 0.000, 0.000, 0.000, 14:57:15.983
79, 9.42, 128.84, 0.00, 0.00, 0.000, 0.000, 0.000, 14:57:15.990
80, 10.65, 124.92, 0.00, 0.00, 0.000, 0.000, 0.000, 14:57:15.990
81, 9.40, 127.83, 0.00, 0.00, 0.000, 0.000, 0.000, 14:57:16.005
82, 14.25, 129.06, 0.00, 0.00, 0.000, 0.000, 0.000, 14:57:16.005
83, 11.58, 127.35, 0.00, 0.00, 0.000, 0.000, 0.000, 14:57:16.005
84, 10.16, 125.55, 0.00, 0.00, 0.000, 0.000, 0.000, 14:57:16.005
85, 8.39, 126.36, 0.00, 0.00, 0.000, 0.000, 0.000, 14:57:16.020
86, 9.28, 129.17, 0.00, 0.00, 0.000, 0.000, 0.000, 14:57:16.020
87, 12.84, 127.56, 0.00, 0.00, 0.000, 0.000, 0.000, 14:57:16.035
88, 8.82, 123.16, 0.00, 0.00, 0.000, 0.000, 0.000, 14:57:16.035
89, 7.83, 128.20, 0.00, 0.00, 0.000, 0.000, 0.000, 14:57:16.035
90, 11.11, 130.08, 0.00, 0.00, 0.000, 0.000, 0.000, 14:57:16.035
91, 10.33, 130.26, 0.00, 0.00, 0.000, 0.000, 0.000, 14:57:16.050
92, 10.26, 124.56, 0.00, 0.00, 0.000, 0.000, 0.000, 14:57:16.050
93, 6.42, 128.41, 0.00, 0.00, 0.000, 0.000, 0.000, 14:57:16.065
94, 12.15, 131.17, 0.00, 0.00, 0.000, 0.000, 0.000, 14:57:16.065
95, 11.62, 127.13, 0.00, 0.00, 0.000, 0.000, 0.000, 14:57:16.065
96, 6.72, 123.22, 0.00, 0.00, 0.000, 0.000, 0.000, 14:57:16.065
97, 9.12, 127.80, 0.00, 0.00, 0.000, 0.000, 0.000, 14:57:16.079
98, 13.21, 131.99, 0.00, 0.00, 0.000, 0.000, 0.000, 14:57:16.080
99, 10.57, 129.85, 0.00, 0.00, 0.000, 0.000, 0.000, 14:57:16.095
100, 10.80, 127.28, 0.00, 0.00, 0.000, 0.000, 0.000, 14:57:16.095
101, 12.17, 125.63, 0.00, 0.00, 0.000, 0.000, 0.000, 14:57:16.095
102, 8.76, 130.51, 0.00, 0.00, 0.000, 0.000, 0.000, 14:57:16.095
103, 14.48, 128.24, 0.00, 0.00, 0.000, 0.000, 0.000, 14:57:16.110
104, 11.68, 125.69, 0.00, 0.00, 0.000, 0.000, 0.000, 14:57:16.110
105, 9.68, 127.25, 0.00, 0.00, 0.000, 0.000, 0.000, 14:57:16.126
106, 11.40, 133.38, 0.00, 0.00, 0.000, 0.000, 0.000, 14:57:16.126
107, 11.51, 128.64, 0.00, 0.00, 0.000, 0.000, 0.000, 14:57:16.127
108, 8.32, 128.12, 0.00, 0.00, 0.000, 0.000, 0.000, 14:57:16.127
109, 12.03, 130.50, 0.00, 0.00, 0.000, 0.000, 0.000, 14:57:16.139
110, 9.25, 133.90, 0.00, 0.00, 0.000, 0.000, 0.000, 14:57:16.139
111, 9.84, 128.74, 0.00, 0.00, 0.000, 0.000, 0.000, 14:57:16.155
112, 10.22, 126.41, 0.00, 0.00, 0.000, 0.000, 0.000, 14:57:16.156
113, 11.40, 130.56, 0.00, 0.00, 0.000, 0.000, 0.000, 14:57:16.156
114, 13.36, 133.87, 0.00, 0.00, 0.000, 0.000, 0.000, 14:57:16.156
115, 11.90, 130.64, 0.00, 0.00, 0.000, 0.000, 0.000, 14:57:16.169
116, 13.41, 130.34, 0.00, 0.00, 0.000, 0.000, 0.000, 14:57:16.170
117, 6.77, 134.24, 0.00, 0.00, 0.000, 0.000, 0.000, 14:57:16.185
118, 9.04, 135.19, 0.00, 0.00, 0.000, 0.000, 0.000, 14:57:16.185
119, 11.13, 132.47, 0.00, 0.00, 0.000, 0.000, 0.000, 14:57:16.185
120, 5.85, 127.40, 0.00, 0.00, 0.000, 0.000, 0.000, 14:57:16.185
121, 7.17, 132.46, 0.00, 0.00, 0.000, 0.000, 0.000, 14:57:16.200
122, 10.20, 133.34, 0.00, 0.00, 0.000, 0.000, 0.000, 14:57:16.201
123, 8.29, 128.72, 0.00, 0.00, 0.000, 0.000, 0.000, 14:57:16.215
124, 11.66, 127.94, 0.00, 0.00, 0.000, 0.000, 0.000, 14:57:16.215
125, 9.91, 131.05, 0.00, 0.00, 0.000, 0.000, 0.000, 14:57:16.215
126, 13.60, 133.14, 0.00, 0.00, 0.000, 0.000, 0.000, 14:57:16.215
127, 13.22, 130.73, 0.00, 0.00, 0.000, 0.000, 0.000, 14:57:16.230
128, 10.66, 122.88, 0.00, 0.00, 0.000, 0.000, 0.000, 14:57:16.230
129, 11.11, 130.34, 0.00, 0.00, 0.000, 0.000, 0.000, 14:57:16.245
130, 14.41, 130.28, 0.00, 0.00, 0.000, 0.000, 0.000, 14:57:16.245
131, 11.44, 127.17, 0.00, 0.00, 0.000, 0.000, 0.000, 14:57:16.246
132, 13.67, 123.47, 0.00, 0.00, 0.000, 0.000, 0.000, 14:57:16.246
133, 16.26, 128.66, 0.00, 0.00, 0.000, 0.000, 0.000, 14:57:16.260
134, 17.27, 132.75, 0.00, 0.00, 0.000, 0.000, 0.000, 14:57:16.260
135, 12.16, 130.42, 0.00, 0.00, 0.000, 0.000, 0.000, 14:57:16.275
136, 9.14, 130.56, 0.00, 0.00, 0.000, 0.000, 0.000, 14:57:16.275
137, 17.12, 132.10, 0.00, 0.00, 0.000, 0.000, 0.000, 14:57:16.275
138, 20.57, 134.70, 0.00, 0.00, 0.000, 0.000, 0.000, 14:57:16.275
139, 17.48, 132.57, 0.00, 0.00, 0.000, 0.000, 0.000, 14:57:16.291
140, 12.10, 130.97, 0.00, 0.00, 0.000, 0.000, 0.000, 14:57:16.291
141, 9.02, 127.59, 0.00, 0.00, 0.000, 0.000, 0.000, 14:57:16.305
142, 9.38, 134.89, 0.00, 0.00, 0.000, 0.000, 0.000, 14:57:16.306
143, 8.69, 132.58, 0.00, 0.00, 0.000, 0.000, 0.000, 14:57:16.306
144, 5.14, 130.44, 0.00, 0.00, 0.000, 0.000, 0.000, 14:57:16.306
145, 6.47, 135.32, 0.00, 0.00, 0.000, 0.000, 0.000, 14:57:16.322
146, 7.41, 131.39, 0.00, 0.00, 0.000, 0.000, 0.000, 14:57:16.322
147, 11.01, 129.61, 0.00, 0.00, 0.000, 0.000, 0.000, 14:57:16.339
148, 9.30, 129.33, 0.00, 0.00, 0.000, 0.000, 0.000, 14:57:16.339
149, 5.80, 128.30, 0.00, 0.00, 0.000, 0.000, 0.000, 14:57:16.340
150, 9.66, 131.61, 0.00, 0.00, 0.000, 0.000, 0.000, 14:57:16.340
151, 8.13, 130.71, 0.00, 0.00, 0.000, 0.000, 0.000, 14:57:16.350
152, 5.87, 126.76, 0.00, 0.00, 0.000, 0.000, 0.000, 14:57:16.350
153, 5.19, 129.87, 0.00, 0.00, 0.000, 0.000, 0.000, 14:57:16.365
154, 6.44, 131.27, 0.00, 0.00, 0.000, 0.000, 0.000, 14:57:16.365
155, 6.90, 129.70, 0.00, 0.00, 0.000, 0.000, 0.000, 14:57:16.365
156, 4.03, 125.20, 0.00, 0.00, 0.000, 0.000, 0.000, 14:57:16.365
157, 2.38, 128.50, 0.00, 0.00, 0.000, 0.000, 0.000, 14:57:16.380
158, 5.75, 128.91, 0.00, 0.00, 0.000, 0.000, 0.000, 14:57:16.380
159, 4.86, 127.22, 0.00, 0.00, 0.000, 0.000, 0.000, 14:57:16.394
160, 3.65, 126.00, 0.00, 0.00, 0.000, 0.000, 0.000, 14:57:16.394
161, 3.83, 126.05, 0.00, 0.00, 0.000, 0.000, 0.000, 14:57:16.395
162, 5.88, 132.30, 0.00, 0.00, 0.000, 0.000, 0.000, 14:57:16.395
163, 1.57, 128.70, 0.00, 0.00, 0.000, 0.000, 0.000, 14:57:16.410
164, 2.11, 121.75, 0.00, 0.00, 0.000, 0.000, 0.000, 14:57:16.410
165, -1.14, 127.39, 0.00, 0.00, 0.000, 0.000, 0.000, 14:57:16.425
166, 3.22, 131.74, 0.00, 0.00, 0.000, 0.000, 0.000, 14:57:16.426
167, -2.26, 126.71, 0.00, 0.00, 0.000, 0.000, 0.000, 14:57:16.426
168, 0.42, 127.65, 0.00, 0.00, 0.000, 0.000, 0.000, 14:57:16.426
169, 2.37, 126.45, 0.00, 0.00, 0.000, 0.000, 0.000, 14:57:16.440
170, 5.32, 131.20, 0.00, 0.00, 0.000, 0.000, 0.000, 14:57:16.440
171, 4.20, 129.90, 0.00, 0.00, 0.000, 0.000, 0.000, 14:57:16.455
172, 1.08, 126.68, 0.00, 0.00, 0.000, 0.000, 0.000, 14:57:16.455
173, 2.72, 128.90, 0.00, 0.00, 0.000, 0.000, 0.000, 14:57:16.462
174, 0.10, 131.01, 0.00, 0.00, 0.000, 0.000, 0.000, 14:57:16.462
175, 2.75, 130.51, 0.00, 0.00, 0.000, 0.000, 0.000, 14:57:16.470
176, 3.78, 127.97, 0.00, 0.00, 0.000, 0.000, 0.000, 14:57:16.470
177, 1.04, 130.48, 0.00, 0.00, 0.000, 0.000, 0.000, 14:57:16.485
178, 3.85, 135.13, 0.00, 0.00, 0.000, 0.000, 0.000, 14:57:16.485
179, 2.59, 132.11, 0.00, 0.00, 0.000, 0.000, 0.000, 14:57:16.486
180, 0.46, 128.97, 0.00, 0.00, 0.000, 0.000, 0.000, 14:57:16.486
181, 1.00, 134.13, 0.00, 0.00, 0.000, 0.000, 0.000, 14:57:16.500
182, 2.63, 141.03, 0.00, 0.00, 0.000, 0.000, 0.000, 14:57:16.500
183, 3.28, 135.15, 0.00, 0.00, 0.000, 0.000, 0.000, 14:57:16.515
184, -1.06, 131.36, 0.00, 0.00, 0.000, 0.000, 0.000, 14:57:16.515
185, 3.68, 129.31, 0.00, 0.00, 0.000, 0.000, 0.000, 14:57:16.515
186, 4.71, 135.08, 0.00, 0.00, 0.000, 0.000, 0.000, 14:57:16.516
187, 6.02, 133.91, 0.00, 0.00, 0.000, 0.000, 0.000, 14:57:16.530
188, 6.17, 126.42, 0.00, 0.00, 0.000, 0.000, 0.000, 14:57:16.530
189, 3.41, 129.46, 0.00, 0.00, 0.000, 0.000, 0.000, 14:57:16.545
190, 4.47, 130.69, 0.00, 0.00, 0.000, 0.000, 0.000, 14:57:16.545
191, 3.42, 130.49, 0.00, 0.00, 0.000, 0.000, 0.000, 14:57:16.560
192, 4.79, 124.77, 0.00, 0.00, 0.000, 0.000, 0.000, 14:57:16.560
193, 3.25, 128.61, 0.00, 0.00, 0.000, 0.000, 0.000, 14:57:16.560
194, 8.98, 129.94, 0.00, 0.00, 0.000, 0.000, 0.000, 14:57:16.560
195, 7.24, 130.64, 0.00, 0.00, 0.000, 0.000, 0.000, 14:57:16.575
196, 7.64, 126.87, 0.00, 0.00, 0.000, 0.000, 0.000, 14:57:16.575
197, 7.43, 128.90, 0.00, 0.00, 0.000, 0.000, 0.000, 14:57:16.575
198, 9.26, 130.08, 0.00, 0.00, 0.000, 0.000, 0.000, 14:57:16.575
199, 9.14, 128.10, 0.00, 0.00, 0.000, 0.000, 0.000, 14:57:16.589
200, 5.84, 125.75, 0.00, 0.00, 0.000, 0.000, 0.000, 14:57:16.589
0, 8.23, 126.25, 0.00, 0.00, 0.000, 0.000, 0.000, 14:57:16.590
1, 6.35, 131.87, 0.00, 0.00, 0.000, 0.000, 0.000, 14:57:16.605
2, 4.04, 128.49, 0.00, 0.00, 0.000, 0.000, 0.000, 14:57:16.605
